# EGG_ProjY_E3426.5(4.5)_B3406.0(2.0)_B3473.5(1.5)
# X axis : Energy (keV) [Y axis]
# Y axis : Counts/1 keV
# N Bins : 12000
# X Min : 0
# X Max : 12000
# X value at the center of the bins
0.5 0
1.5 0
2.5 0
3.5 0
4.5 0
5.5 43.5714
6.5 52.5714
7.5 47.1429
8.5 33.8571
9.5 13.2857
10.5 18.8571
11.5 78
12.5 40.7143
13.5 26.7143
14.5 51.5714
15.5 82.4286
16.5 118.143
17.5 141.714
18.5 115.714
19.5 247.286
20.5 300.429
21.5 264.143
22.5 341
23.5 325.857
24.5 407.571
25.5 471.857
26.5 547
27.5 562
28.5 679.571
29.5 566.143
30.5 797.571
31.5 760.143
32.5 956.857
33.5 864.286
34.5 1005.86
35.5 960.714
36.5 1036.57
37.5 917.857
38.5 982.143
39.5 943.714
40.5 1076.29
41.5 1212.43
42.5 958.429
43.5 1037.71
44.5 1249.29
45.5 1083.86
46.5 1290
47.5 1134.43
48.5 1184.71
49.5 1212.71
50.5 1171.71
51.5 1234.57
52.5 1247.14
53.5 1113.29
54.5 1334.43
55.5 1308.14
56.5 1317
57.5 1382.86
58.5 1746.86
59.5 2014.14
60.5 1497.86
61.5 1245.14
62.5 1150.29
63.5 1436.14
64.5 1197.43
65.5 1337.29
66.5 1475.86
67.5 1564.86
68.5 1383.29
69.5 1397.29
70.5 1287.86
71.5 1247.86
72.5 1258.14
73.5 1731
74.5 2239.43
75.5 2599.43
76.5 2840.71
77.5 3045.57
78.5 2047.71
79.5 1406.57
80.5 1136.57
81.5 1185.86
82.5 1287
83.5 1308.29
84.5 1156.29
85.5 1583
86.5 1796.86
87.5 1982.57
88.5 1747.14
89.5 1589.57
90.5 1366.14
91.5 1311.43
92.5 1334.71
93.5 1096
94.5 1303.57
95.5 1391.86
96.5 1333.29
97.5 1269.43
98.5 1126.14
99.5 1350.86
100.5 1280.43
101.5 1437.57
102.5 1292.29
103.5 1367.71
104.5 1238.29
105.5 1277
106.5 1370.29
107.5 1367.57
108.5 1413
109.5 1407.14
110.5 1319.29
111.5 1335.29
112.5 1369.86
113.5 1370.43
114.5 1435.14
115.5 1451.57
116.5 1426.43
117.5 1475.43
118.5 1515.29
119.5 1613.71
120.5 1473.29
121.5 1479.29
122.5 1290.29
123.5 1445.14
124.5 1368.57
125.5 1557.57
126.5 1439.14
127.5 1467.14
128.5 1350.57
129.5 1435.57
130.5 1785.57
131.5 1644.43
132.5 1649.71
133.5 1678.14
134.5 1702.29
135.5 1675.29
136.5 1740.71
137.5 1594.86
138.5 1578.71
139.5 1834.43
140.5 1549.43
141.5 1747.43
142.5 1820.57
143.5 1751
144.5 1698.29
145.5 1513.29
146.5 1537.57
147.5 1380.71
148.5 1683
149.5 1494.71
150.5 1744
151.5 1694.57
152.5 1847.43
153.5 1698.57
154.5 1743.43
155.5 1898.57
156.5 1728.29
157.5 1794.29
158.5 1782.57
159.5 1798.14
160.5 2155.14
161.5 2005.43
162.5 1679.14
163.5 1685.57
164.5 1721.86
165.5 1592.43
166.5 1859
167.5 1688.71
168.5 1534.14
169.5 1848
170.5 1574.43
171.5 1664.29
172.5 1615
173.5 1664
174.5 1939.71
175.5 1399
176.5 1711.57
177.5 1604.43
178.5 1583.57
179.5 1804.57
180.5 1705.29
181.5 1572.57
182.5 1914.29
183.5 1679.57
184.5 1709.86
185.5 1812.57
186.5 1638.71
187.5 1906.57
188.5 1756
189.5 1860.57
190.5 1751.86
191.5 2040.71
192.5 1833
193.5 2105.43
194.5 2007.86
195.5 2056.29
196.5 1854.29
197.5 1906.43
198.5 2091.71
199.5 1940.43
200.5 1900.43
201.5 1822.71
202.5 1857
203.5 1831.86
204.5 1789
205.5 1994
206.5 1737.57
207.5 1736.43
208.5 1819.57
209.5 1683
210.5 2025.86
211.5 1957.71
212.5 1738.71
213.5 1834.57
214.5 1974.86
215.5 2070.14
216.5 1796.29
217.5 2031.29
218.5 2055.29
219.5 2122.29
220.5 1964.86
221.5 2044.43
222.5 2181.43
223.5 2107.43
224.5 1882.57
225.5 1984
226.5 2079.29
227.5 2004
228.5 1782.14
229.5 1841
230.5 2025.14
231.5 2064.29
232.5 1968.29
233.5 1935.71
234.5 1827.86
235.5 1723.29
236.5 1918.14
237.5 1839.14
238.5 1817.86
239.5 1692.14
240.5 1656.29
241.5 1637.14
242.5 1858.86
243.5 1810.71
244.5 2009.71
245.5 1937.86
246.5 1950.14
247.5 1863.29
248.5 1879.86
249.5 1812.71
250.5 1957.14
251.5 1633.29
252.5 1805.29
253.5 1921.86
254.5 2020.29
255.5 1786.43
256.5 2014.57
257.5 1959.14
258.5 1956
259.5 1736.71
260.5 1816.29
261.5 1784.57
262.5 1899
263.5 1762.86
264.5 1546.57
265.5 1662
266.5 1607.57
267.5 1692
268.5 1717.43
269.5 1556.14
270.5 1651.43
271.5 1523.29
272.5 1519.29
273.5 1544.86
274.5 1517.86
275.5 1565.43
276.5 1407.14
277.5 1605.43
278.5 1405.43
279.5 1602.29
280.5 1520.43
281.5 1519.14
282.5 1603.86
283.5 1667.14
284.5 1551
285.5 1530.14
286.5 1584
287.5 1503.57
288.5 1493.14
289.5 1560.14
290.5 1505.29
291.5 1446.14
292.5 1370.57
293.5 1553.86
294.5 1581.86
295.5 1644.29
296.5 1465.14
297.5 1385.43
298.5 1669
299.5 1497.14
300.5 1421.86
301.5 1463
302.5 1478.14
303.5 1282.43
304.5 1317.71
305.5 1411.43
306.5 1403.57
307.5 1401.29
308.5 1469.43
309.5 1609.43
310.5 1358
311.5 1510.57
312.5 1517
313.5 1282.14
314.5 1398.57
315.5 1448.29
316.5 1472.57
317.5 1572.57
318.5 1763.43
319.5 1755.86
320.5 1546.86
321.5 1609.86
322.5 1664.71
323.5 1726.71
324.5 1473.86
325.5 1752.29
326.5 1580.86
327.5 1559.86
328.5 1483.43
329.5 1416
330.5 1436.57
331.5 1406.71
332.5 1224.57
333.5 1311
334.5 1223
335.5 1212
336.5 1206
337.5 1165.57
338.5 1065.71
339.5 1170
340.5 1216.71
341.5 961.429
342.5 1071.86
343.5 1069.71
344.5 1186.86
345.5 1192.14
346.5 1240.71
347.5 1272.29
348.5 1207.86
349.5 1117.57
350.5 1156.86
351.5 1181.86
352.5 1269.71
353.5 1100.71
354.5 1227.57
355.5 1265.14
356.5 1363.29
357.5 1424.14
358.5 1236
359.5 1224.14
360.5 1315.57
361.5 1207.14
362.5 1095.43
363.5 1230.86
364.5 1320.71
365.5 1228.71
366.5 1104.43
367.5 1184.71
368.5 1253.71
369.5 1252.43
370.5 1200.29
371.5 1097
372.5 1275.14
373.5 1205.86
374.5 1041.14
375.5 1090
376.5 1158.43
377.5 1248.43
378.5 1266.43
379.5 1350.29
380.5 1334.14
381.5 1255.86
382.5 1095.57
383.5 1173.43
384.5 1146.86
385.5 1161.43
386.5 1152.86
387.5 1135.43
388.5 936.714
389.5 1022.14
390.5 1040.86
391.5 1174.14
392.5 1074.43
393.5 1144.57
394.5 1198.57
395.5 1027.29
396.5 1050
397.5 1039.29
398.5 1037
399.5 1073.14
400.5 1053.29
401.5 992
402.5 1196.71
403.5 1530
404.5 1478.86
405.5 1275.86
406.5 1193.29
407.5 1041.43
408.5 1168.71
409.5 1122.14
410.5 1066.43
411.5 1099.43
412.5 1114.43
413.5 1150
414.5 1012.14
415.5 978.714
416.5 930.714
417.5 1000.29
418.5 977
419.5 1054.57
420.5 1166.86
421.5 1256.57
422.5 1056.57
423.5 1055.86
424.5 1131.57
425.5 1081.43
426.5 1058.57
427.5 1019.57
428.5 988.429
429.5 979.857
430.5 1055.57
431.5 1123.57
432.5 1290
433.5 1158.71
434.5 1179.43
435.5 1177.29
436.5 1147
437.5 1176
438.5 1371.86
439.5 1090
440.5 1130.43
441.5 1034.71
442.5 1155.57
443.5 1193.86
444.5 1104.86
445.5 1131
446.5 1119.86
447.5 1075.86
448.5 996
449.5 1224.29
450.5 943.429
451.5 1019.29
452.5 887.857
453.5 891.571
454.5 859.571
455.5 853.857
456.5 924
457.5 941.286
458.5 841.143
459.5 931
460.5 979.714
461.5 1045.57
462.5 822.143
463.5 925.857
464.5 900.143
465.5 945
466.5 1085.86
467.5 856
468.5 896.571
469.5 949.429
470.5 965.571
471.5 941.857
472.5 1133.71
473.5 1096.29
474.5 1151.57
475.5 1206.14
476.5 1208.71
477.5 1205.86
478.5 1313
479.5 1161.29
480.5 1012.86
481.5 1119.71
482.5 1185.14
483.5 911.571
484.5 955.571
485.5 885.429
486.5 970.714
487.5 928.857
488.5 783.286
489.5 809
490.5 929.571
491.5 820
492.5 936.143
493.5 832.143
494.5 831
495.5 828.571
496.5 709.143
497.5 776.571
498.5 802.714
499.5 775.143
500.5 803.286
501.5 843.286
502.5 964.286
503.5 1027.71
504.5 1005.29
505.5 1150.57
506.5 1295.43
507.5 2046.86
508.5 3367.43
509.5 6209.43
510.5 8793.14
511.5 8425.86
512.5 5645.43
513.5 2990.14
514.5 1617.86
515.5 1070.14
516.5 1108.57
517.5 1150.86
518.5 992.571
519.5 841.143
520.5 855
521.5 841.286
522.5 774.143
523.5 763.286
524.5 792.143
525.5 869.857
526.5 836.714
527.5 798.143
528.5 802.857
529.5 915.857
530.5 841.429
531.5 948.429
532.5 870.714
533.5 932.143
534.5 878.143
535.5 727.571
536.5 918.571
537.5 894
538.5 829.143
539.5 999.286
540.5 845.429
541.5 960.143
542.5 809.286
543.5 1069.71
544.5 1065.43
545.5 1007.57
546.5 1035.57
547.5 1006.86
548.5 867.286
549.5 797.857
550.5 821.286
551.5 753.143
552.5 875.143
553.5 679.429
554.5 706.143
555.5 662.857
556.5 731.571
557.5 731.286
558.5 675.429
559.5 774.429
560.5 698.714
561.5 651.286
562.5 712.286
563.5 724.143
564.5 636.286
565.5 677.143
566.5 708.857
567.5 694.429
568.5 738.714
569.5 775.857
570.5 893
571.5 736
572.5 729.143
573.5 772.286
574.5 765.714
575.5 772.857
576.5 738.286
577.5 718.571
578.5 758.571
579.5 834.286
580.5 797.571
581.5 805.429
582.5 798.429
583.5 940
584.5 791
585.5 674.571
586.5 714.857
587.5 740
588.5 726.857
589.5 832
590.5 772.714
591.5 812.286
592.5 638.857
593.5 861.143
594.5 833.286
595.5 836.429
596.5 865.286
597.5 688
598.5 795.571
599.5 837.429
600.5 744.143
601.5 827.286
602.5 766
603.5 783.286
604.5 787.143
605.5 803.714
606.5 777.143
607.5 721.571
608.5 895.286
609.5 778.286
610.5 841.286
611.5 834.429
612.5 814.714
613.5 768.571
614.5 750.714
615.5 733.143
616.5 749.143
617.5 696.714
618.5 801
619.5 735.286
620.5 777.429
621.5 785.714
622.5 765.286
623.5 785.714
624.5 682
625.5 767.286
626.5 681.857
627.5 1110.14
628.5 1347.29
629.5 1125.29
630.5 805.429
631.5 791.857
632.5 850
633.5 746.429
634.5 696.429
635.5 919.429
636.5 1030
637.5 1317.14
638.5 1047.43
639.5 908.429
640.5 738.571
641.5 775.143
642.5 908.571
643.5 851
644.5 1385.57
645.5 2078.71
646.5 1724.71
647.5 1156.29
648.5 894.286
649.5 977.286
650.5 1082.86
651.5 1076.71
652.5 790.429
653.5 804.571
654.5 861.571
655.5 626.571
656.5 765.714
657.5 793.143
658.5 655.714
659.5 772
660.5 732.143
661.5 769.143
662.5 686.571
663.5 753.714
664.5 726.857
665.5 666.286
666.5 692.571
667.5 687.857
668.5 771.857
669.5 734.143
670.5 834.571
671.5 676.143
672.5 681.857
673.5 790.429
674.5 785.571
675.5 714.857
676.5 734
677.5 738.857
678.5 767.714
679.5 759
680.5 810.143
681.5 744.571
682.5 736.286
683.5 688.571
684.5 690.429
685.5 747.571
686.5 703.429
687.5 748.857
688.5 778.429
689.5 744
690.5 760.143
691.5 719.714
692.5 758.857
693.5 693.571
694.5 829.143
695.5 741.857
696.5 686.714
697.5 809.857
698.5 793.286
699.5 773.429
700.5 720.571
701.5 730
702.5 882.714
703.5 1080.86
704.5 1310.14
705.5 1006.57
706.5 755.143
707.5 774.714
708.5 739.143
709.5 725.429
710.5 694.143
711.5 713.143
712.5 721.714
713.5 746.714
714.5 729.143
715.5 784
716.5 766.429
717.5 857.571
718.5 761.429
719.5 724.571
720.5 675.714
721.5 679.429
722.5 664.857
723.5 754.571
724.5 805.286
725.5 753.571
726.5 714.286
727.5 793
728.5 735.571
729.5 709.571
730.5 740.429
731.5 657.571
732.5 797
733.5 632.571
734.5 729.143
735.5 678.429
736.5 716.857
737.5 674.857
738.5 707.143
739.5 637.571
740.5 656.857
741.5 661.714
742.5 596.143
743.5 842
744.5 753.286
745.5 719.143
746.5 762.143
747.5 650.714
748.5 748.714
749.5 797
750.5 683.143
751.5 771.571
752.5 814.714
753.5 692.286
754.5 705.571
755.5 769.571
756.5 822.429
757.5 823
758.5 796.429
759.5 1156.57
760.5 2076.43
761.5 2146
762.5 1462.14
763.5 879.571
764.5 789.286
765.5 736.857
766.5 720.429
767.5 722.286
768.5 697
769.5 778.143
770.5 764
771.5 738.429
772.5 782.286
773.5 640.143
774.5 803.286
775.5 764
776.5 768
777.5 748.429
778.5 764
779.5 849.143
780.5 885.143
781.5 838
782.5 852.857
783.5 735.143
784.5 832.714
785.5 953.571
786.5 791
787.5 830.857
788.5 856.714
789.5 755.143
790.5 814.571
791.5 823.571
792.5 794.857
793.5 762.143
794.5 835.714
795.5 727.429
796.5 704.571
797.5 808.429
798.5 695.143
799.5 795.571
800.5 649.857
801.5 705.286
802.5 862.429
803.5 931.571
804.5 913.429
805.5 863.857
806.5 756.429
807.5 813.286
808.5 759.857
809.5 681.286
810.5 746.714
811.5 735.714
812.5 774.857
813.5 862.286
814.5 765.714
815.5 718.857
816.5 830.429
817.5 740
818.5 711.429
819.5 794.429
820.5 725
821.5 824.143
822.5 823
823.5 866.286
824.5 754.857
825.5 813.143
826.5 802.714
827.5 913.857
828.5 738.714
829.5 843.143
830.5 815.429
831.5 818.714
832.5 847.571
833.5 819.143
834.5 825.571
835.5 785.286
836.5 781.714
837.5 744.429
838.5 825.714
839.5 782.143
840.5 804.143
841.5 797.143
842.5 885.857
843.5 687.571
844.5 763
845.5 852.286
846.5 820.143
847.5 807.571
848.5 830
849.5 833.143
850.5 702.714
851.5 793.429
852.5 858.571
853.5 802
854.5 738.143
855.5 876
856.5 865
857.5 790
858.5 847.429
859.5 836.571
860.5 783.429
861.5 810.857
862.5 857.714
863.5 799.571
864.5 834.857
865.5 886.429
866.5 920.429
867.5 1038.29
868.5 1178.14
869.5 1088
870.5 1095.57
871.5 1022.43
872.5 881.143
873.5 945.571
874.5 960.429
875.5 936.429
876.5 940
877.5 1171.71
878.5 1274.57
879.5 946.143
880.5 867.429
881.5 971.143
882.5 871.857
883.5 852.714
884.5 914.714
885.5 811.143
886.5 911.571
887.5 850.143
888.5 925.714
889.5 894.571
890.5 865.714
891.5 909.429
892.5 995.571
893.5 972.143
894.5 888
895.5 981
896.5 795.143
897.5 961.429
898.5 885.143
899.5 945.286
900.5 882
901.5 895
902.5 918.857
903.5 1042.43
904.5 981.429
905.5 960.571
906.5 1093.14
907.5 946.857
908.5 993.571
909.5 1031.57
910.5 972.571
911.5 955.286
912.5 902
913.5 1037.71
914.5 1020.29
915.5 957.286
916.5 1056.14
917.5 1027.29
918.5 1102.43
919.5 1022.29
920.5 1140
921.5 1118
922.5 1005.43
923.5 1129.43
924.5 1141.43
925.5 1071.43
926.5 1133.14
927.5 1235.29
928.5 1045.71
929.5 1209
930.5 1201.14
931.5 1219.29
932.5 1181
933.5 1128
934.5 1275.14
935.5 1207.43
936.5 1263.29
937.5 1272.57
938.5 1353.71
939.5 1270
940.5 1125.29
941.5 1262.14
942.5 1315.29
943.5 1210.71
944.5 1212.29
945.5 1185.29
946.5 1062.71
947.5 1067
948.5 1064.57
949.5 981
950.5 967
951.5 910.857
952.5 948.714
953.5 937
954.5 945
955.5 878.286
956.5 868.571
957.5 829.857
958.5 894.429
959.5 846.571
960.5 768.857
961.5 708.286
962.5 860.286
963.5 918.143
964.5 777.143
965.5 848.571
966.5 872.429
967.5 882.714
968.5 833
969.5 777.286
970.5 814.286
971.5 774.286
972.5 775.857
973.5 788.286
974.5 754.857
975.5 708.429
976.5 789.429
977.5 769.143
978.5 821.714
979.5 745.571
980.5 822
981.5 681.571
982.5 592.571
983.5 632.714
984.5 550.857
985.5 645.857
986.5 701
987.5 758.286
988.5 796.286
989.5 773.286
990.5 737.857
991.5 744.857
992.5 679.143
993.5 690.714
994.5 819.857
995.5 682.714
996.5 650.143
997.5 699.857
998.5 702.143
999.5 760
1000.5 1003.14
1001.5 1342
1002.5 1326.43
1003.5 927.714
1004.5 753
1005.5 690.571
1006.5 676
1007.5 682.286
1008.5 620.714
1009.5 555
1010.5 667
1011.5 658.571
1012.5 568.143
1013.5 639.429
1014.5 650
1015.5 624.429
1016.5 558.286
1017.5 531.286
1018.5 652.429
1019.5 623.571
1020.5 685.571
1021.5 577.143
1022.5 667.429
1023.5 665.857
1024.5 803
1025.5 763.857
1026.5 605.429
1027.5 634.143
1028.5 617.429
1029.5 531.143
1030.5 518.286
1031.5 577
1032.5 560.429
1033.5 583
1034.5 566.571
1035.5 586.857
1036.5 514.286
1037.5 625
1038.5 555.429
1039.5 567.143
1040.5 569.286
1041.5 501.857
1042.5 576.714
1043.5 508.429
1044.5 493.143
1045.5 456.143
1046.5 411.857
1047.5 519.571
1048.5 511.429
1049.5 404.857
1050.5 455.143
1051.5 514.571
1052.5 467.571
1053.5 470.571
1054.5 478.143
1055.5 488
1056.5 431.429
1057.5 486.571
1058.5 426.286
1059.5 381.571
1060.5 503.714
1061.5 407.571
1062.5 464.429
1063.5 466
1064.5 444.571
1065.5 519.143
1066.5 510.857
1067.5 473.286
1068.5 425.429
1069.5 381
1070.5 529.286
1071.5 559.714
1072.5 927.857
1073.5 2115.14
1074.5 2462.43
1075.5 1387.14
1076.5 651.571
1077.5 443.857
1078.5 432
1079.5 387.143
1080.5 369.143
1081.5 378
1082.5 437.143
1083.5 395.143
1084.5 402.857
1085.5 344.857
1086.5 415.143
1087.5 433.143
1088.5 364.571
1089.5 416.429
1090.5 419
1091.5 365.857
1092.5 398.714
1093.5 416
1094.5 428.857
1095.5 418.143
1096.5 411.286
1097.5 324.429
1098.5 412.714
1099.5 391.571
1100.5 409
1101.5 369.429
1102.5 355.571
1103.5 425.714
1104.5 395.714
1105.5 350.286
1106.5 422.429
1107.5 426.429
1108.5 431.714
1109.5 329.571
1110.5 403
1111.5 374.571
1112.5 389.714
1113.5 424.571
1114.5 380.429
1115.5 389.143
1116.5 343.714
1117.5 407.286
1118.5 380.143
1119.5 428.714
1120.5 354.857
1121.5 448.571
1122.5 475.857
1123.5 930.143
1124.5 1855.57
1125.5 4008.57
1126.5 4142
1127.5 2527.86
1128.5 785.286
1129.5 407.143
1130.5 386.429
1131.5 326.571
1132.5 385
1133.5 387.857
1134.5 376.286
1135.5 359.714
1136.5 373.429
1137.5 326.143
1138.5 364.143
1139.5 363.429
1140.5 357.429
1141.5 387
1142.5 331
1143.5 370.571
1144.5 401.143
1145.5 370.714
1146.5 414.286
1147.5 442.143
1148.5 450
1149.5 450.286
1150.5 470
1151.5 509.286
1152.5 736.429
1153.5 2266.57
1154.5 9515.86
1155.5 32617.9
1156.5 71601.3
1157.5 73186
1158.5 30422.4
1159.5 6549
1160.5 1401.14
1161.5 523.429
1162.5 331.714
1163.5 348.571
1164.5 370
1165.5 290
1166.5 243.571
1167.5 226.714
1168.5 232.857
1169.5 161.429
1170.5 162.143
1171.5 217
1172.5 193.429
1173.5 169.143
1174.5 171.857
1175.5 176.857
1176.5 195.286
1177.5 180.286
1178.5 183.857
1179.5 172
1180.5 171
1181.5 171.571
1182.5 222.143
1183.5 181.857
1184.5 280.429
1185.5 158.571
1186.5 201.429
1187.5 256
1188.5 312.286
1189.5 864.429
1190.5 1828.14
1191.5 1913.71
1192.5 1025.43
1193.5 370
1194.5 189.714
1195.5 208.429
1196.5 157.714
1197.5 152.429
1198.5 159.429
1199.5 207.714
1200.5 154.143
1201.5 224.143
1202.5 190.714
1203.5 225.857
1204.5 161.286
1205.5 202.571
1206.5 233.143
1207.5 271.286
1208.5 161.429
1209.5 161
1210.5 157.286
1211.5 184.714
1212.5 196.143
1213.5 201.143
1214.5 209.857
1215.5 193.143
1216.5 179.286
1217.5 140.714
1218.5 184.714
1219.5 162.714
1220.5 183.857
1221.5 206
1222.5 154.143
1223.5 174
1224.5 177.429
1225.5 189.429
1226.5 157.286
1227.5 121.714
1228.5 117.286
1229.5 148
1230.5 141.571
1231.5 162.429
1232.5 145
1233.5 181.429
1234.5 175.429
1235.5 133.429
1236.5 155.429
1237.5 198.714
1238.5 162
1239.5 126.143
1240.5 224.714
1241.5 277.571
1242.5 372.286
1243.5 335.714
1244.5 205.571
1245.5 213.286
1246.5 135.714
1247.5 160.143
1248.5 139.714
1249.5 156
1250.5 205.286
1251.5 169.714
1252.5 169.714
1253.5 158.429
1254.5 161.571
1255.5 198.714
1256.5 178.429
1257.5 158
1258.5 206.429
1259.5 173.714
1260.5 242.857
1261.5 225
1262.5 346.714
1263.5 251.857
1264.5 199.429
1265.5 244.143
1266.5 274.143
1267.5 314.714
1268.5 196.571
1269.5 110.143
1270.5 161.429
1271.5 152.857
1272.5 145.571
1273.5 126.571
1274.5 169.286
1275.5 181.857
1276.5 132.429
1277.5 130.857
1278.5 159.714
1279.5 179.286
1280.5 133.143
1281.5 173.714
1282.5 135.714
1283.5 164.429
1284.5 147.857
1285.5 198.714
1286.5 138
1287.5 128.429
1288.5 143.143
1289.5 158.857
1290.5 198.857
1291.5 191.429
1292.5 247.429
1293.5 128.429
1294.5 163.429
1295.5 222.429
1296.5 166.429
1297.5 109.286
1298.5 198.571
1299.5 202.857
1300.5 204.429
1301.5 184.143
1302.5 174.143
1303.5 149
1304.5 189
1305.5 165
1306.5 130
1307.5 169.571
1308.5 179.714
1309.5 234.143
1310.5 211.429
1311.5 187.857
1312.5 173.857
1313.5 158.429
1314.5 206.857
1315.5 150.571
1316.5 175.143
1317.5 154.714
1318.5 181.857
1319.5 188
1320.5 181.857
1321.5 299.143
1322.5 201.857
1323.5 174.571
1324.5 181.143
1325.5 173.714
1326.5 201
1327.5 137.571
1328.5 223.571
1329.5 171.143
1330.5 152.571
1331.5 192.714
1332.5 161.286
1333.5 135.286
1334.5 182.571
1335.5 136.143
1336.5 173.857
1337.5 170.857
1338.5 119.286
1339.5 138.714
1340.5 160.857
1341.5 131
1342.5 184.286
1343.5 84.8571
1344.5 175
1345.5 213.857
1346.5 161.714
1347.5 163.429
1348.5 150.857
1349.5 162.714
1350.5 216.429
1351.5 144
1352.5 170.571
1353.5 187.143
1354.5 163
1355.5 163.143
1356.5 191.857
1357.5 149.857
1358.5 143.143
1359.5 196
1360.5 152.286
1361.5 173
1362.5 174.714
1363.5 180.286
1364.5 198.857
1365.5 111.429
1366.5 157.571
1367.5 183.714
1368.5 149.286
1369.5 191.429
1370.5 180.143
1371.5 182.571
1372.5 167.571
1373.5 167.714
1374.5 237
1375.5 218.857
1376.5 196.429
1377.5 155.429
1378.5 149.857
1379.5 181
1380.5 168
1381.5 163.571
1382.5 86
1383.5 180.857
1384.5 268.286
1385.5 259.286
1386.5 218.714
1387.5 195.143
1388.5 201.571
1389.5 167.429
1390.5 193.857
1391.5 215.857
1392.5 140.571
1393.5 152.429
1394.5 179
1395.5 112.857
1396.5 186
1397.5 182.714
1398.5 199.714
1399.5 115.429
1400.5 157.286
1401.5 125
1402.5 155.286
1403.5 104.143
1404.5 168.714
1405.5 176.429
1406.5 136.429
1407.5 175.286
1408.5 101.429
1409.5 197.714
1410.5 190.571
1411.5 236.714
1412.5 185
1413.5 177.857
1414.5 182.286
1415.5 163.714
1416.5 142.143
1417.5 149.857
1418.5 176.571
1419.5 196.714
1420.5 190.571
1421.5 160.714
1422.5 175.143
1423.5 168.286
1424.5 145.571
1425.5 115.429
1426.5 184.286
1427.5 222.429
1428.5 252.571
1429.5 283.714
1430.5 198.571
1431.5 132.857
1432.5 234.429
1433.5 148.286
1434.5 153.286
1435.5 164.429
1436.5 123.714
1437.5 153.286
1438.5 156.429
1439.5 157.857
1440.5 188.857
1441.5 153
1442.5 211.857
1443.5 193.714
1444.5 154.143
