# EGG_ProjY_E1983.5(4.5)_B1973.5(1.5)_B2022.0(2.0)
# X axis : Energy (keV) [Y axis]
# Y axis : Counts/1 keV
# N Bins : 12000
# X Min : 0
# X Max : 12000
# X value at the center of the bins
0.5 0
1.5 0
2.5 0
3.5 0
4.5 0
5.5 24.8571
6.5 14
7.5 28.2857
8.5 3.85714
9.5 -7.14286
10.5 10.2857
11.5 3.71429
12.5 35.8571
13.5 4.57143
14.5 40.5714
15.5 -14
16.5 85.7143
17.5 86.2857
18.5 165.429
19.5 168.286
20.5 197.286
21.5 176.571
22.5 239.143
23.5 228.571
24.5 276.429
25.5 288.286
26.5 477.857
27.5 503.143
28.5 433.857
29.5 607.857
30.5 953.857
31.5 677.571
32.5 768.286
33.5 532.429
34.5 691
35.5 657.429
36.5 729.714
37.5 832
38.5 665.714
39.5 908.143
40.5 597.143
41.5 1038.57
42.5 884.714
43.5 1228.71
44.5 913.143
45.5 746.429
46.5 828
47.5 1010.71
48.5 633.429
49.5 862
50.5 992.714
51.5 875.571
52.5 1048
53.5 1050
54.5 986
55.5 848
56.5 1112.14
57.5 1153.14
58.5 1420.86
59.5 1551.86
60.5 1110.86
61.5 1182.57
62.5 1210
63.5 755.571
64.5 1044.71
65.5 961.429
66.5 1192.43
67.5 1033.14
68.5 1286
69.5 1040
70.5 1121.71
71.5 941
72.5 1011
73.5 1212.29
74.5 1859.71
75.5 1921.14
76.5 2161.57
77.5 2526.86
78.5 1613.57
79.5 1020.57
80.5 840.286
81.5 1029.57
82.5 850.571
83.5 1116.14
84.5 1238.29
85.5 1210.57
86.5 1466.86
87.5 1610.43
88.5 1590.57
89.5 1566.57
90.5 1350.71
91.5 1358
92.5 1323.71
93.5 1281.14
94.5 998.857
95.5 1210.86
96.5 1282.71
97.5 1418.43
98.5 1429
99.5 1264.57
100.5 1294.57
101.5 1405.71
102.5 1248.71
103.5 1690.71
104.5 1511.29
105.5 1439
106.5 1321
107.5 1436
108.5 1282.57
109.5 1538.86
110.5 1240.14
111.5 1460.71
112.5 1382.86
113.5 1290.86
114.5 1157.86
115.5 1053
116.5 1196.14
117.5 1181.86
118.5 1193.43
119.5 991.429
120.5 955.143
121.5 877.714
122.5 1069.43
123.5 922.286
124.5 976
125.5 782.714
126.5 589.714
127.5 447
128.5 663.429
129.5 558
130.5 848.143
131.5 1329.86
132.5 1322.29
133.5 1416.86
134.5 1414
135.5 1574.57
136.5 1161.43
137.5 1481.14
138.5 1273.14
139.5 1535
140.5 1194.71
141.5 1293.29
142.5 1598.86
143.5 1253
144.5 1239.57
145.5 1322.71
146.5 1249.14
147.5 1232.29
148.5 1478
149.5 1460.71
150.5 1433.57
151.5 1456.43
152.5 1710.43
153.5 1527.57
154.5 1473.29
155.5 1523.57
156.5 1697.57
157.5 1901.14
158.5 1965.57
159.5 1739.14
160.5 2113
161.5 2553.71
162.5 2968.14
163.5 3230.14
164.5 3263.14
165.5 3145
166.5 3134.14
167.5 3126.43
168.5 2431.57
169.5 2017.57
170.5 1902.71
171.5 1402.14
172.5 1579
173.5 3399
174.5 4497.29
175.5 1494
176.5 -500
177.5 -764.857
178.5 11.4287
179.5 467.857
180.5 960.714
181.5 1081.43
182.5 1273.43
183.5 1241.86
184.5 1097.71
185.5 1280.14
186.5 1030.57
187.5 1482.14
188.5 1402.86
189.5 1102.86
190.5 1171.86
191.5 1095.57
192.5 1321.86
193.5 1424.71
194.5 1126.14
195.5 1203.43
196.5 494.286
197.5 -989.857
198.5 -2619.14
199.5 -4428.57
200.5 -5492.71
201.5 -4564.29
202.5 -2983
203.5 -829.143
204.5 564.429
205.5 1303.29
206.5 1328.57
207.5 1719.57
208.5 1723
209.5 1650.71
210.5 1842.86
211.5 2319.71
212.5 2379.71
213.5 2199.14
214.5 2447.71
215.5 2349.57
216.5 2249.57
217.5 2164.29
218.5 2482.86
219.5 1949.71
220.5 1856.29
221.5 1761.29
222.5 1546
223.5 1217.43
224.5 962.429
225.5 813.429
226.5 743.714
227.5 1115
228.5 1320
229.5 1388
230.5 1595.29
231.5 2218.14
232.5 2904.29
233.5 4858
234.5 7491.86
235.5 10493
236.5 12613.7
237.5 13835.1
238.5 14068.3
239.5 14048.7
240.5 13279.1
241.5 12067.1
242.5 9971
243.5 7254.71
244.5 3861.57
245.5 1023.29
246.5 -2199.29
247.5 -5451.57
248.5 -7279.43
249.5 -7792.57
250.5 -5476.86
251.5 -2988.43
252.5 -468.428
253.5 346.572
254.5 830.429
255.5 904.572
256.5 745.286
257.5 826.143
258.5 814.572
259.5 1026.29
260.5 802.286
261.5 1202.86
262.5 1071.14
263.5 1386.29
264.5 1137.86
265.5 1225.57
266.5 1171.43
267.5 1334.14
268.5 842.143
269.5 1005.57
270.5 933.714
271.5 898.143
272.5 893.857
273.5 939.143
274.5 623.857
275.5 394.429
276.5 880.857
277.5 570
278.5 573.286
279.5 730.286
280.5 661.429
281.5 884.714
282.5 943.571
283.5 870.429
284.5 943.857
285.5 846.857
286.5 899
287.5 928.571
288.5 969.571
289.5 916.571
290.5 980.714
291.5 1031.86
292.5 1017.29
293.5 1030.57
294.5 1197.71
295.5 1224.71
296.5 982.857
297.5 1113
298.5 1533.86
299.5 1548.57
300.5 1434.43
301.5 890.429
302.5 972.571
303.5 805.429
304.5 829.143
305.5 857.429
306.5 774.143
307.5 821.286
308.5 927.429
309.5 1129
310.5 999.143
311.5 1186.71
312.5 1247
313.5 1242.57
314.5 1111.14
315.5 1294.57
316.5 1253.14
317.5 1196.86
318.5 974.571
319.5 1219.29
320.5 946.429
321.5 513
322.5 761.714
323.5 750.714
324.5 588
325.5 673
326.5 373.286
327.5 495.714
328.5 652.286
329.5 868.286
330.5 519.714
331.5 762.714
332.5 902.857
333.5 903.286
334.5 751.714
335.5 809
336.5 725.571
337.5 769.571
338.5 883.429
339.5 803.857
340.5 781.143
341.5 753.571
342.5 574.857
343.5 756
344.5 701.286
345.5 712.143
346.5 873.286
347.5 899
348.5 930.286
349.5 882.143
350.5 571.429
351.5 690.571
352.5 688.857
353.5 670.857
354.5 854.714
355.5 720.429
356.5 792
357.5 663.857
358.5 690
359.5 787.286
360.5 642.286
361.5 729
362.5 770.714
363.5 791.714
364.5 649
365.5 646
366.5 708.286
367.5 641.429
368.5 773.286
369.5 625
370.5 776.571
371.5 696.857
372.5 514.286
373.5 800.143
374.5 652.429
375.5 622.429
376.5 736
377.5 713
378.5 615.571
379.5 601
380.5 540.571
381.5 696.714
382.5 664.571
383.5 817.429
384.5 656
385.5 758.286
386.5 644.571
387.5 809.286
388.5 774.714
389.5 645.429
390.5 858
391.5 778.429
392.5 871.143
393.5 782.143
394.5 658.286
395.5 642.143
396.5 677.714
397.5 455.286
398.5 641.143
399.5 569.714
400.5 645.286
401.5 536.571
402.5 795.143
403.5 2235.86
404.5 2115.86
405.5 999.143
406.5 436.571
407.5 536.286
408.5 480.857
409.5 405.857
410.5 450
411.5 393
412.5 455.714
413.5 328.714
414.5 360.857
415.5 560.571
416.5 660.429
417.5 649.143
418.5 652
419.5 591.143
420.5 496.286
421.5 559
422.5 822.143
423.5 423.714
424.5 533.429
425.5 475.714
426.5 578.857
427.5 644.143
428.5 550
429.5 466.143
430.5 676
431.5 509.286
432.5 721.429
433.5 884
434.5 648.714
435.5 643
436.5 628.429
437.5 563.714
438.5 654.429
439.5 757.571
440.5 693
441.5 650.143
442.5 826.286
443.5 704.857
444.5 783.857
445.5 690.714
446.5 828.286
447.5 715.857
448.5 627
449.5 570.286
450.5 806.143
451.5 648.143
452.5 641.714
453.5 453.857
454.5 708
455.5 452.714
456.5 583.714
457.5 433.857
458.5 508.714
459.5 596.429
460.5 654.571
461.5 403.286
462.5 538.143
463.5 618.571
464.5 449.571
465.5 666.571
466.5 585.286
467.5 555.286
468.5 553.143
469.5 419
470.5 468.143
471.5 584.714
472.5 405
473.5 595.429
474.5 463.286
475.5 636.286
476.5 364
477.5 763.857
478.5 700.143
479.5 714
480.5 564.857
481.5 653.143
482.5 634.286
483.5 666.143
484.5 489.286
485.5 482.857
486.5 649.286
487.5 461
488.5 673
489.5 551
490.5 562.571
491.5 525.286
492.5 433.286
493.5 415.571
494.5 230.714
495.5 47.2858
496.5 157.429
497.5 276.286
498.5 390.714
499.5 282.714
500.5 503.714
501.5 604.571
502.5 627.143
503.5 432.286
504.5 499.571
505.5 395.857
506.5 632.571
507.5 1065.86
508.5 2610.86
509.5 5257.71
510.5 6078.86
511.5 5115.57
512.5 2935.43
513.5 1523
514.5 869.286
515.5 730.286
516.5 782.857
517.5 557.714
518.5 634.571
519.5 544.143
520.5 683.143
521.5 497
522.5 503.857
523.5 431.286
524.5 503.429
525.5 511
526.5 436.429
527.5 474.571
528.5 393
529.5 653.571
530.5 609.857
531.5 768.857
532.5 720.429
533.5 826.571
534.5 832.143
535.5 786
536.5 779.571
537.5 668.143
538.5 638.286
539.5 531.143
540.5 544.286
541.5 393.429
542.5 459.143
543.5 385.143
544.5 423.143
545.5 472.571
546.5 441
547.5 485.714
548.5 555
549.5 497.714
550.5 566.714
551.5 546.429
552.5 400.571
553.5 529.143
554.5 295
555.5 331.429
556.5 376.286
557.5 423.429
558.5 470.714
559.5 507
560.5 484.714
561.5 435.857
562.5 463.429
563.5 517.429
564.5 460.143
565.5 489.571
566.5 508.571
567.5 601.857
568.5 448.143
569.5 488.857
570.5 465.143
571.5 499.286
572.5 462.857
573.5 400.857
574.5 401
575.5 442.714
576.5 482
577.5 467.429
578.5 405.857
579.5 515.429
580.5 368.286
581.5 398.571
582.5 215.143
583.5 336
584.5 200.286
585.5 317.714
586.5 432.571
587.5 566.714
588.5 389.286
589.5 422.286
590.5 467.143
591.5 527.571
592.5 364.286
593.5 289.714
594.5 297
595.5 129.429
596.5 237.571
597.5 191.857
598.5 335.857
599.5 413.143
600.5 324
601.5 296
602.5 371.571
603.5 381.286
604.5 452.714
605.5 439.429
606.5 459.571
607.5 461.286
608.5 530.286
609.5 410.429
610.5 292.714
611.5 392.714
612.5 476.571
613.5 321
614.5 462
615.5 465.143
616.5 408.857
617.5 467.857
618.5 443.286
619.5 505.143
620.5 456.571
621.5 579.286
622.5 477
623.5 384.571
624.5 514.286
625.5 432.286
626.5 505.429
627.5 549.143
628.5 583.857
629.5 616.143
630.5 565.571
631.5 529.857
632.5 502.714
633.5 501.857
634.5 629
635.5 974.857
636.5 2741
637.5 4318.29
638.5 2829
639.5 996
640.5 503
641.5 333.714
642.5 328.857
643.5 417.286
644.5 317.143
645.5 296
646.5 409.857
647.5 486.286
648.5 338.571
649.5 409.429
650.5 736.286
651.5 720.286
652.5 1035.57
653.5 1295.86
654.5 882
655.5 697
656.5 507.857
657.5 255
658.5 492.571
659.5 438.286
660.5 385.571
661.5 342.857
662.5 372.857
663.5 199.286
664.5 -285.429
665.5 -443.143
666.5 119.571
667.5 337.143
668.5 564.571
669.5 386.714
670.5 503
671.5 483.571
672.5 611.714
673.5 492.143
674.5 552.857
675.5 410.714
676.5 480.286
677.5 351.143
678.5 448.714
679.5 340.857
680.5 391.571
681.5 388.857
682.5 421
683.5 408
684.5 380.571
685.5 471.143
686.5 506.143
687.5 545.714
688.5 430.714
689.5 388
690.5 358.571
691.5 388.571
692.5 401.857
693.5 380.857
694.5 493.143
695.5 284.143
696.5 383.143
697.5 356.429
698.5 349.286
699.5 311.714
700.5 276.429
701.5 433.857
702.5 550.429
703.5 622.714
704.5 498.571
705.5 416.429
706.5 430.429
707.5 398.571
708.5 376
709.5 261.286
710.5 488.571
711.5 368.714
712.5 491.714
713.5 503.286
714.5 376.714
715.5 451.286
716.5 398.143
717.5 397.143
718.5 464.429
719.5 410.143
720.5 444.429
721.5 290.143
722.5 457.571
723.5 425.286
724.5 383
725.5 396.429
726.5 405.429
727.5 296
728.5 413.571
729.5 318
730.5 428.571
731.5 422.143
732.5 517
733.5 518.286
734.5 487.714
735.5 430.714
736.5 523.857
737.5 609.286
738.5 526.714
739.5 642.429
740.5 551.143
741.5 641.286
742.5 484.429
743.5 434.714
744.5 488.143
745.5 403.714
746.5 240.143
747.5 331.286
748.5 365.571
749.5 352
750.5 413.143
751.5 393.286
752.5 413.429
753.5 413.857
754.5 410.286
755.5 482.143
756.5 466.429
757.5 475
758.5 562.714
759.5 2100.86
760.5 5254.86
761.5 5832.29
762.5 2725.57
763.5 961.286
764.5 606.286
765.5 575
766.5 363
767.5 465
768.5 391.714
769.5 494.143
770.5 312.286
771.5 436
772.5 357.571
773.5 439
774.5 377.143
775.5 306.714
776.5 460.571
777.5 449.714
778.5 444.143
779.5 458.714
780.5 328.714
781.5 507.571
782.5 353.714
783.5 454.429
784.5 389.286
785.5 498.429
786.5 231.143
787.5 -464.286
788.5 -808.143
789.5 -307.286
790.5 255.286
791.5 452.857
792.5 398.857
793.5 453.286
794.5 503.286
795.5 282.857
796.5 354.143
797.5 405.714
798.5 410.143
799.5 460
800.5 440
801.5 440.714
802.5 407.714
803.5 445.286
804.5 453.857
805.5 340.571
806.5 556.429
807.5 526.429
808.5 415
809.5 373.714
810.5 477.857
811.5 434.429
812.5 397.429
813.5 393.286
814.5 361.857
815.5 590.714
816.5 547.714
817.5 493
818.5 515.429
819.5 573.714
820.5 409.286
821.5 494
822.5 572.429
823.5 387
824.5 376.429
825.5 585
826.5 474.286
827.5 417.571
828.5 433.571
829.5 418
830.5 547.429
831.5 560.714
832.5 344.143
833.5 459.143
834.5 454.429
835.5 477.857
836.5 414
837.5 470.714
838.5 340.571
839.5 363.714
840.5 433.857
841.5 481.286
842.5 494.571
843.5 375.857
844.5 349.857
845.5 492.286
846.5 565.429
847.5 346.286
848.5 426.143
849.5 507.429
850.5 461.429
851.5 523.714
852.5 347
853.5 384.857
854.5 364.143
855.5 324.286
856.5 537.714
857.5 627.571
858.5 563.857
859.5 554.571
860.5 526.429
861.5 470.571
862.5 511.286
863.5 451.429
864.5 487.714
865.5 542.143
866.5 408.571
867.5 388.714
868.5 364.571
869.5 355.571
870.5 613.571
871.5 409.143
872.5 451.857
873.5 483.286
874.5 441
875.5 587.857
876.5 1361.57
877.5 2909.29
878.5 3288.57
879.5 1707.86
880.5 646.714
881.5 560.714
882.5 438.429
883.5 513.143
884.5 479
885.5 571
886.5 552.857
887.5 630.143
888.5 524.143
889.5 384.714
890.5 507
891.5 401.429
892.5 520.143
893.5 518.571
894.5 540
895.5 475.714
896.5 590.714
897.5 466.143
898.5 548.143
899.5 552.571
900.5 605.571
901.5 587.143
902.5 616
903.5 530.714
904.5 565.571
905.5 576.429
906.5 590
907.5 587.714
908.5 482.429
909.5 540.571
910.5 456.286
911.5 503.143
912.5 450.143
913.5 456
914.5 571.429
915.5 580.286
916.5 450
917.5 578.571
918.5 483
919.5 428
920.5 518.429
921.5 325
922.5 533
923.5 466.143
924.5 540.571
925.5 459.429
926.5 408
927.5 578.857
928.5 418.714
929.5 502
930.5 552.286
931.5 439.571
932.5 535.714
933.5 615.714
934.5 523
935.5 586.714
936.5 428.714
937.5 632.714
938.5 477.429
939.5 527.714
940.5 649.429
941.5 608.857
942.5 646.571
943.5 549
944.5 560.286
945.5 533.143
946.5 418.571
947.5 483.571
948.5 523.857
949.5 417.143
950.5 337.286
951.5 441.143
952.5 383.571
953.5 424.857
954.5 374.571
955.5 281.571
956.5 336.714
957.5 470
958.5 489.714
959.5 476.143
960.5 445.857
961.5 400.714
962.5 485
963.5 499.143
964.5 1117.71
965.5 2451.43
966.5 3715.43
967.5 2639.71
968.5 1069.71
969.5 533.143
970.5 386.571
971.5 403.857
972.5 393.143
973.5 294.714
974.5 440.429
975.5 269.571
976.5 341.571
977.5 355.143
978.5 389.714
979.5 424
980.5 359.714
981.5 456.571
982.5 323.429
983.5 253.714
984.5 265
985.5 311
986.5 248.714
987.5 294.286
988.5 292.571
989.5 360.857
990.5 297.429
991.5 290.429
992.5 304.143
993.5 212.714
994.5 367.857
995.5 185.286
996.5 363.143
997.5 246
998.5 368.714
999.5 589.429
1000.5 1348.29
1001.5 2549.57
1002.5 2544.57
1003.5 1070.14
1004.5 629.714
1005.5 345.714
1006.5 314.857
1007.5 324.429
1008.5 303.286
1009.5 327.857
1010.5 246.143
1011.5 280
1012.5 199.571
1013.5 252.571
1014.5 252.429
1015.5 258.286
1016.5 303.429
1017.5 251.857
1018.5 286.571
1019.5 349
1020.5 205.143
1021.5 379.857
1022.5 325.429
1023.5 615.571
1024.5 785.143
1025.5 727.857
1026.5 306.714
1027.5 314.857
1028.5 261.286
1029.5 245.714
1030.5 321.714
1031.5 277.571
1032.5 139.429
1033.5 158.571
1034.5 278.429
1035.5 274.857
1036.5 330.286
1037.5 307.857
1038.5 268.143
1039.5 147.714
1040.5 235
1041.5 354.143
1042.5 314.571
1043.5 279.143
1044.5 226.857
1045.5 319.429
1046.5 227.571
1047.5 170.429
1048.5 170.857
1049.5 223.429
1050.5 392
1051.5 334.429
1052.5 268.429
1053.5 374.571
1054.5 287
1055.5 115
1056.5 194.143
1057.5 163
1058.5 265
1059.5 189.714
1060.5 151
1061.5 188.286
1062.5 139.857
1063.5 165
1064.5 280.571
1065.5 249
1066.5 167
1067.5 254.571
1068.5 236.714
1069.5 183
1070.5 276.857
1071.5 514.571
1072.5 1510.86
1073.5 3349
1074.5 4070.14
1075.5 2128.86
1076.5 541.571
1077.5 282.429
1078.5 165
1079.5 193.857
1080.5 209.143
1081.5 198.286
1082.5 193.571
1083.5 183.429
1084.5 197.857
1085.5 126.714
1086.5 267.286
1087.5 190
1088.5 128.857
1089.5 295.143
1090.5 294.143
1091.5 320.429
1092.5 251.571
1093.5 188.143
1094.5 155
1095.5 134
1096.5 186.571
1097.5 152
1098.5 182.286
1099.5 177.571
1100.5 57.8572
1101.5 120
1102.5 215.714
1103.5 202
1104.5 191.857
1105.5 163.857
1106.5 228.714
1107.5 211.857
1108.5 161.286
1109.5 225.429
1110.5 269.857
1111.5 93.7143
1112.5 236.571
1113.5 311
1114.5 165.571
1115.5 143.857
1116.5 185
1117.5 203.429
1118.5 187.857
1119.5 211.714
1120.5 174.429
1121.5 184.286
1122.5 592.143
1123.5 1324.71
1124.5 5229.43
1125.5 12061
1126.5 13374.1
1127.5 6386.29
1128.5 1542.29
1129.5 475
1130.5 179.714
1131.5 192.143
1132.5 132.143
1133.5 151.286
1134.5 80.1429
1135.5 169
1136.5 142.714
1137.5 180.571
1138.5 216.286
1139.5 222.714
1140.5 205
1141.5 153.857
1142.5 207.857
1143.5 170
1144.5 114.143
1145.5 110.857
1146.5 220.571
1147.5 218.429
1148.5 253.143
1149.5 114.571
1150.5 223.429
1151.5 167.143
1152.5 218.857
1153.5 650.429
1154.5 2329.29
1155.5 9335.86
1156.5 19931
1157.5 21013.9
1158.5 8861.14
1159.5 1838.29
1160.5 409.857
1161.5 212.286
1162.5 152.429
1163.5 60.8572
1164.5 115.286
1165.5 277.857
1166.5 175.286
1167.5 96.4286
1168.5 71
1169.5 65.8572
1170.5 95.2857
1171.5 78.8572
1172.5 98.4286
1173.5 147
1174.5 40.1429
1175.5 48.8572
1176.5 204.286
1177.5 119.286
1178.5 164.429
1179.5 143.429
1180.5 72.5714
1181.5 57.5714
1182.5 90.5714
1183.5 171.571
1184.5 43.4286
1185.5 58.8572
1186.5 143.429
1187.5 164.143
1188.5 129.571
1189.5 170.286
1190.5 48
1191.5 88.7143
1192.5 174.286
1193.5 101.571
1194.5 123
1195.5 21
1196.5 86.8572
1197.5 129.857
1198.5 80.5714
1199.5 93.4286
1200.5 97.7143
1201.5 93.8572
1202.5 99.5714
1203.5 45.5714
1204.5 123.857
1205.5 81.7143
1206.5 77.5714
1207.5 93.4286
1208.5 139.286
1209.5 38.4286
1210.5 162.143
1211.5 60.8572
1212.5 96.2857
1213.5 99.7143
1214.5 149.429
1215.5 149.714
1216.5 146.143
1217.5 196.429
1218.5 83.8572
1219.5 21.4286
1220.5 183.143
1221.5 123.857
1222.5 117.143
1223.5 135.571
1224.5 123.143
1225.5 116.429
1226.5 121.429
1227.5 104.286
1228.5 145.286
1229.5 88.5714
1230.5 49.2857
1231.5 73.7143
1232.5 137.143
1233.5 97.7143
1234.5 49.1429
1235.5 68.7143
1236.5 135.429
1237.5 126.143
1238.5 62.4286
1239.5 111
1240.5 139.714
1241.5 90.1429
1242.5 104.714
1243.5 76.2857
1244.5 40.1429
1245.5 134
1246.5 55
1247.5 75.4286
1248.5 104.857
1249.5 109.286
1250.5 141.571
1251.5 152
1252.5 106
1253.5 29.5714
1254.5 191.429
1255.5 44.4286
1256.5 110.429
1257.5 178
1258.5 365.286
1259.5 795.714
1260.5 1146
1261.5 778.857
1262.5 321.571
1263.5 163.143
1264.5 93.2857
1265.5 172.714
1266.5 247.429
1267.5 271.714
1268.5 171.571
1269.5 46.7143
1270.5 125.429
1271.5 142.286
1272.5 108.286
1273.5 76.7143
1274.5 101.286
1275.5 201.143
1276.5 116.857
1277.5 153
1278.5 75.8572
1279.5 127.286
1280.5 63
1281.5 115.571
1282.5 130.429
1283.5 99.5714
1284.5 56.4286
1285.5 66.1429
1286.5 130.286
1287.5 82.8571
1288.5 148.143
1289.5 120.714
1290.5 81
1291.5 87
1292.5 64.1429
1293.5 100
1294.5 119
1295.5 87.7143
1296.5 62.5714
1297.5 85.8572
1298.5 72
1299.5 77.1429
1300.5 122.143
1301.5 133.286
1302.5 70.2857
1303.5 120.857
1304.5 163.429
1305.5 73.4286
1306.5 108.857
1307.5 66.8572
1308.5 -33.2857
1309.5 100.143
1310.5 76
1311.5 115.143
1312.5 106.286
1313.5 132.143
1314.5 110.714
1315.5 131.857
1316.5 91.4286
1317.5 130
1318.5 97.1429
1319.5 114
1320.5 91
1321.5 159.286
1322.5 103.857
1323.5 81
1324.5 135
1325.5 189.286
1326.5 63.5714
1327.5 85.4286
1328.5 84.4286
1329.5 75.7143
1330.5 70.7143
1331.5 80.2857
1332.5 40.4286
1333.5 111.714
1334.5 60.5714
1335.5 15.1429
1336.5 96.4286
1337.5 51
1338.5 32.7143
1339.5 98.8571
1340.5 166.571
1341.5 92.1429
1342.5 77.7143
1343.5 119.429
1344.5 71.2857
1345.5 89.5714
1346.5 69.2857
1347.5 94.5714
1348.5 46.2857
1349.5 112.143
1350.5 84.5714
1351.5 66.1429
1352.5 89.5714
1353.5 98.8572
1354.5 69.7143
1355.5 63.2857
1356.5 100.857
1357.5 151.429
1358.5 63.2857
1359.5 54.2857
1360.5 35.2857
1361.5 61.8571
1362.5 7.71429
1363.5 85.1429
1364.5 70.5714
1365.5 99.1429
1366.5 122.429
1367.5 137
1368.5 115.857
1369.5 137.429
1370.5 46.4286
1371.5 74
1372.5 121.714
1373.5 116.857
1374.5 174.571
1375.5 67.2857
1376.5 155.286
1377.5 138
1378.5 188.286
1379.5 151.143
1380.5 115.571
1381.5 75.1429
1382.5 108.571
1383.5 151
1384.5 144.571
1385.5 144.714
1386.5 120.286
1387.5 68.4286
1388.5 114.571
1389.5 115.286
1390.5 128.857
1391.5 118.714
1392.5 86.7143
1393.5 73.2857
1394.5 84
1395.5 108.286
1396.5 69.1429
1397.5 126
1398.5 48.7143
1399.5 86.5714
1400.5 182
1401.5 78.2857
1402.5 54.8571
1403.5 98.5714
1404.5 119.286
1405.5 92.4286
1406.5 62.8571
1407.5 102.286
1408.5 16.1429
1409.5 111.286
1410.5 54.2857
1411.5 127.857
1412.5 84.1429
1413.5 83.5714
1414.5 86.8571
1415.5 87.1429
1416.5 90.4286
1417.5 108
1418.5 83.4286
1419.5 103.143
1420.5 77.8572
1421.5 99.1429
1422.5 41
1423.5 74.5714
1424.5 71.2857
1425.5 44.5714
1426.5 139.857
1427.5 265.714
1428.5 449.857
1429.5 348.286
1430.5 170.714
1431.5 53.8572
1432.5 208.143
1433.5 324
1434.5 522.429
1435.5 492.857
1436.5 157.714
1437.5 131.857
1438.5 119.143
1439.5 136.286
1440.5 142.714
1441.5 29.2857
1442.5 98.1429
1443.5 71.5714
1444.5 131.429
1445.5 101.714
1446.5 102.714
1447.5 72.2857
1448.5 144.714
1449.5 26.7143
1450.5 221.143
1451.5 107
1452.5 46.5714
