# EGG_ProjY_E3446.0(3.0)_B3420.5(1.5)_B3474.0(2.0)
# X axis : Energy (keV) [Y axis]
# Y axis : Counts/1 keV
# N Bins : 12000
# X Min : 0
# X Max : 12000
# X value at the center of the bins
0.5 0
1.5 0
2.5 0
3.5 0
4.5 0
5.5 29
6.5 11.1429
7.5 8.71429
8.5 11.1429
9.5 2
10.5 5.42857
11.5 32.8571
12.5 12.8571
13.5 21.5714
14.5 5.42857
15.5 37
16.5 45.1429
17.5 43
18.5 99.5714
19.5 119.571
20.5 99
21.5 142.714
22.5 129.571
23.5 152.714
24.5 130.286
25.5 178.429
26.5 228.143
27.5 287.143
28.5 326
29.5 325
30.5 327.143
31.5 375
32.5 517
33.5 307
34.5 409.714
35.5 449
36.5 487.714
37.5 356
38.5 432.857
39.5 431.429
40.5 527.286
41.5 442.143
42.5 389.286
43.5 438.286
44.5 460.429
45.5 414.571
46.5 573.143
47.5 550.286
48.5 420.143
49.5 508
50.5 569.714
51.5 518.714
52.5 457
53.5 465.286
54.5 659.857
55.5 535.714
56.5 519.429
57.5 562.857
58.5 661.429
59.5 755.143
60.5 656
61.5 557
62.5 442
63.5 552.571
64.5 416.714
65.5 472.571
66.5 482.143
67.5 583.714
68.5 578.714
69.5 531.429
70.5 491.571
71.5 525.143
72.5 498.857
73.5 649.714
74.5 905.286
75.5 993.143
76.5 1155.43
77.5 1176.71
78.5 892.143
79.5 534
80.5 610.143
81.5 533.286
82.5 539.714
83.5 595.429
84.5 529.429
85.5 796.429
86.5 707.857
87.5 791.286
88.5 730.286
89.5 658
90.5 674.857
91.5 647
92.5 560.571
93.5 470
94.5 606.143
95.5 563
96.5 653
97.5 588.429
98.5 557.571
99.5 551.143
100.5 529
101.5 515.143
102.5 410
103.5 417.571
104.5 613.571
105.5 504.429
106.5 620.571
107.5 554.286
108.5 506.857
109.5 448
110.5 441.714
111.5 494.714
112.5 529.286
113.5 623.143
114.5 572.714
115.5 612
116.5 686.571
117.5 583.571
118.5 711
119.5 687.714
120.5 662.714
121.5 724.429
122.5 689
123.5 698.571
124.5 711.571
125.5 669.143
126.5 560.143
127.5 630.143
128.5 551.714
129.5 635
130.5 753.571
131.5 811
132.5 864
133.5 709.857
134.5 769.429
135.5 804
136.5 876.714
137.5 650.143
138.5 818.143
139.5 814.857
140.5 742
141.5 732.143
142.5 900.714
143.5 670.429
144.5 716.857
145.5 640.857
146.5 580.857
147.5 734.429
148.5 628.857
149.5 562.857
150.5 799.286
151.5 732
152.5 672.571
153.5 599.857
154.5 697.857
155.5 792.286
156.5 735.286
157.5 774.714
158.5 812.143
159.5 703.857
160.5 691.714
161.5 706.714
162.5 747
163.5 787
164.5 719.857
165.5 650.857
166.5 753.286
167.5 758.857
168.5 726.143
169.5 695.286
170.5 707.571
171.5 744.714
172.5 837.857
173.5 857.286
174.5 793.571
175.5 841.571
176.5 878.143
177.5 915.571
178.5 805.286
179.5 927.714
180.5 815.571
181.5 717.286
182.5 767.571
183.5 781.143
184.5 804.714
185.5 670.714
186.5 625.429
187.5 730.429
188.5 717.571
189.5 803.857
190.5 784.571
191.5 728.714
192.5 693.429
193.5 940.571
194.5 844.571
195.5 851.571
196.5 642.143
197.5 883.429
198.5 681.286
199.5 687.143
200.5 820.714
201.5 773.714
202.5 815.286
203.5 768.857
204.5 865.857
205.5 817.571
206.5 775
207.5 898.286
208.5 906.286
209.5 972.714
210.5 982.143
211.5 1001.29
212.5 972.571
213.5 972.143
214.5 1106.29
215.5 1029.43
216.5 987.571
217.5 913.286
218.5 888.714
219.5 853.857
220.5 820.714
221.5 813.714
222.5 770.714
223.5 930.714
224.5 787.714
225.5 910.571
226.5 974.429
227.5 769.429
228.5 791.714
229.5 814.571
230.5 864.429
231.5 965.857
232.5 876.429
233.5 895
234.5 881.286
235.5 850.571
236.5 1030.43
237.5 883.286
238.5 871
239.5 888
240.5 745.571
241.5 817.286
242.5 850.429
243.5 633.143
244.5 787.429
245.5 756.571
246.5 735.286
247.5 785.714
248.5 916.857
249.5 866.143
250.5 799.286
251.5 776.429
252.5 783
253.5 737.714
254.5 888.571
255.5 757.286
256.5 787
257.5 811.857
258.5 710.857
259.5 811
260.5 822.571
261.5 732.571
262.5 728.429
263.5 854.857
264.5 754.429
265.5 830.286
266.5 787.429
267.5 677.714
268.5 604.143
269.5 609.286
270.5 688.143
271.5 592.429
272.5 639.571
273.5 627.286
274.5 704.857
275.5 570.429
276.5 495.143
277.5 730.857
278.5 651.143
279.5 739
280.5 627.286
281.5 726.571
282.5 778.714
283.5 740.857
284.5 648.571
285.5 646.143
286.5 756.714
287.5 801.286
288.5 559.857
289.5 719.571
290.5 729.857
291.5 644.143
292.5 713.143
293.5 620.857
294.5 654.714
295.5 777.286
296.5 794.286
297.5 840.571
298.5 1022.29
299.5 1194
300.5 1035.86
301.5 787.571
302.5 777.286
303.5 647.857
304.5 636.857
305.5 758.571
306.5 726
307.5 654.857
308.5 691.143
309.5 697.857
310.5 631
311.5 720.857
312.5 584.857
313.5 560.429
314.5 687.857
315.5 536.714
316.5 600.429
317.5 633.714
318.5 674.857
319.5 614.286
320.5 570.857
321.5 499.429
322.5 632.286
323.5 525
324.5 482.429
325.5 609.714
326.5 517.429
327.5 606.286
328.5 650.571
329.5 530.286
330.5 526.714
331.5 459.429
332.5 559.286
333.5 471.714
334.5 641.714
335.5 573.143
336.5 452.143
337.5 497.143
338.5 507.714
339.5 706.429
340.5 576.429
341.5 407.429
342.5 552.571
343.5 606.143
344.5 532.714
345.5 543.571
346.5 612.857
347.5 488.571
348.5 585.714
349.5 579.429
350.5 516.857
351.5 535.857
352.5 496
353.5 550.286
354.5 543
355.5 578
356.5 561.286
357.5 514.143
358.5 573.571
359.5 664.429
360.5 660.857
361.5 610.714
362.5 610.286
363.5 623.143
364.5 465.286
365.5 511.143
366.5 589.286
367.5 344.571
368.5 444.143
369.5 360.429
370.5 484
371.5 427.429
372.5 465.286
373.5 490.286
374.5 452.857
375.5 493.286
376.5 637.429
377.5 506.857
378.5 501
379.5 541.286
380.5 548.857
381.5 532.429
382.5 454.857
383.5 457.714
384.5 378
385.5 383.143
386.5 471.857
387.5 370.857
388.5 379
389.5 332.143
390.5 392.571
391.5 442
392.5 398.857
393.5 505.286
394.5 421.429
395.5 317.429
396.5 403.143
397.5 452
398.5 463.571
399.5 450.857
400.5 467.714
401.5 370.857
402.5 531.571
403.5 887
404.5 856
405.5 572.286
406.5 483
407.5 441.857
408.5 543.286
409.5 483
410.5 439.286
411.5 571.143
412.5 594.857
413.5 681.857
414.5 572.857
415.5 490.714
416.5 498.286
417.5 610
418.5 564.143
419.5 534.143
420.5 614.714
421.5 562.429
422.5 581.429
423.5 498.714
424.5 520.714
425.5 388.571
426.5 502.714
427.5 474
428.5 410.714
429.5 517.857
430.5 467.857
431.5 467.571
432.5 395.714
433.5 411.143
434.5 508.857
435.5 404
436.5 271.714
437.5 379.857
438.5 389.714
439.5 312.143
440.5 351.714
441.5 438.143
442.5 446.857
443.5 474.286
444.5 356.429
445.5 392
446.5 438
447.5 296.857
448.5 326.286
449.5 316.429
450.5 388.714
451.5 477.714
452.5 464.857
453.5 459.714
454.5 490.571
455.5 466.714
456.5 560
457.5 509.143
458.5 473.429
459.5 389.429
460.5 453.429
461.5 491.143
462.5 416
463.5 410.571
464.5 347.143
465.5 326.571
466.5 420.714
467.5 437
468.5 304.714
469.5 406.857
470.5 406
471.5 391
472.5 396.286
473.5 443
474.5 517.143
475.5 473.286
476.5 490
477.5 402.143
478.5 501.857
479.5 423.571
480.5 378.571
481.5 366
482.5 424.143
483.5 348
484.5 390.714
485.5 458
486.5 339.143
487.5 420.571
488.5 396.571
489.5 434.429
490.5 364.429
491.5 424.143
492.5 470.857
493.5 371.857
494.5 379.857
495.5 381.714
496.5 338.286
497.5 281.714
498.5 313.286
499.5 408.429
500.5 385.714
501.5 385
502.5 453.571
503.5 346.857
504.5 432
505.5 484.143
506.5 762.143
507.5 1167.71
508.5 2067.71
509.5 3397.86
510.5 4163.43
511.5 3713.57
512.5 2302.57
513.5 1023.14
514.5 646.429
515.5 457.571
516.5 377.429
517.5 398.714
518.5 383.143
519.5 392.857
520.5 395.857
521.5 354.571
522.5 393.714
523.5 478.429
524.5 536.714
525.5 466.857
526.5 493.714
527.5 493.143
528.5 452.857
529.5 419.286
530.5 403.429
531.5 393.714
532.5 413.714
533.5 361.143
534.5 340
535.5 357.714
536.5 265.857
537.5 289.571
538.5 243.429
539.5 345.286
540.5 398.714
541.5 396
542.5 294.714
543.5 309.714
544.5 320.429
545.5 364.714
546.5 444.143
547.5 313.714
548.5 299.429
549.5 256.857
550.5 283.857
551.5 273.571
552.5 299.714
553.5 316.286
554.5 309.714
555.5 277.571
556.5 322.571
557.5 220.571
558.5 331.143
559.5 353.286
560.5 348.857
561.5 287.857
562.5 340
563.5 380.286
564.5 336.714
565.5 375.714
566.5 326.286
567.5 339.571
568.5 369.286
569.5 293.286
570.5 366.143
571.5 280.286
572.5 313
573.5 367.571
574.5 363.143
575.5 349.714
576.5 347.286
577.5 410.714
578.5 382.714
579.5 388.286
580.5 388.429
581.5 347.286
582.5 323.857
583.5 349.429
584.5 351
585.5 458.571
586.5 414.143
587.5 404.143
588.5 404.857
589.5 377.286
590.5 393.286
591.5 348.143
592.5 287.714
593.5 332.286
594.5 425
595.5 427.286
596.5 458.143
597.5 312.571
598.5 363.571
599.5 407
600.5 304.286
601.5 302.429
602.5 299.429
603.5 383.286
604.5 366.143
605.5 347
606.5 336.286
607.5 337
608.5 378.857
609.5 349.429
610.5 363.571
611.5 323.429
612.5 312.143
613.5 324.857
614.5 309.143
615.5 290.143
616.5 310.571
617.5 278.143
618.5 360.714
619.5 293
620.5 311.714
621.5 369.857
622.5 322.286
623.5 360.857
624.5 299.143
625.5 317.714
626.5 419.714
627.5 413.857
628.5 562
629.5 398.714
630.5 420.571
631.5 348.571
632.5 326.714
633.5 287.714
634.5 310.571
635.5 390.857
636.5 382.286
637.5 369.857
638.5 376.857
639.5 312.143
640.5 310
641.5 334
642.5 344.143
643.5 310.143
644.5 337.429
645.5 249.143
646.5 409.429
647.5 362.286
648.5 362.857
649.5 469.429
650.5 595.714
651.5 570.571
652.5 578.429
653.5 668.286
654.5 508.429
655.5 342.857
656.5 397.286
657.5 255.429
658.5 309.857
659.5 220.143
660.5 369.857
661.5 287.714
662.5 366.429
663.5 326.714
664.5 407.571
665.5 354.714
666.5 374.571
667.5 353.571
668.5 422.143
669.5 416.571
670.5 345.714
671.5 367.429
672.5 293.143
673.5 341.857
674.5 343.143
675.5 331
676.5 332.714
677.5 334
678.5 281.857
679.5 320.714
680.5 369.429
681.5 400.429
682.5 366.571
683.5 356
684.5 274
685.5 370.286
686.5 311.571
687.5 340.429
688.5 345.429
689.5 379.286
690.5 326.571
691.5 308
692.5 362.571
693.5 279.714
694.5 377.429
695.5 325.286
696.5 318.571
697.5 340.143
698.5 302.429
699.5 303.286
700.5 314.857
701.5 342.571
702.5 391.857
703.5 449
704.5 422.571
705.5 382.857
706.5 378
707.5 328.571
708.5 340.143
709.5 332.714
710.5 304.714
711.5 322.714
712.5 277
713.5 316.571
714.5 383.571
715.5 273.857
716.5 301
717.5 381.429
718.5 377.429
719.5 419.857
720.5 331.429
721.5 281.857
722.5 350.571
723.5 317.714
724.5 331
725.5 347.714
726.5 326.429
727.5 412.286
728.5 326.857
729.5 317.857
730.5 327.429
731.5 338
732.5 350.429
733.5 270.857
734.5 300.429
735.5 331.143
736.5 314.857
737.5 295
738.5 301.857
739.5 394.143
740.5 283.571
741.5 340
742.5 371.714
743.5 320.571
744.5 368.286
745.5 333
746.5 370.286
747.5 219.286
748.5 360.429
749.5 345.857
750.5 337.857
751.5 360.286
752.5 366
753.5 368.286
754.5 352
755.5 367.857
756.5 397.143
757.5 400
758.5 429
759.5 754.429
760.5 1536.14
761.5 1696.86
762.5 922.143
763.5 546.714
764.5 369
765.5 416.429
766.5 423.286
767.5 384.143
768.5 420.857
769.5 338.857
770.5 338
771.5 324
772.5 342.143
773.5 335.714
774.5 367.714
775.5 392.286
776.5 369.286
777.5 354.286
778.5 383.143
779.5 360.143
780.5 326
781.5 344.857
782.5 339.714
783.5 342
784.5 299
785.5 299.429
786.5 345.714
787.5 373.714
788.5 296.143
789.5 300.143
790.5 347.571
791.5 315.857
792.5 361.714
793.5 367.143
794.5 324
795.5 309.286
796.5 415.571
797.5 420.286
798.5 374
799.5 376.286
800.5 319.286
801.5 417
802.5 343.143
803.5 373.714
804.5 345.143
805.5 412.286
806.5 392.571
807.5 403.857
808.5 324.714
809.5 418.571
810.5 419.714
811.5 327.143
812.5 360.286
813.5 390.286
814.5 411.857
815.5 365.714
816.5 407.429
817.5 370
818.5 340.571
819.5 312.143
820.5 427.571
821.5 381
822.5 389.714
823.5 395.857
824.5 353
825.5 384.143
826.5 397.571
827.5 340.571
828.5 370.429
829.5 360.286
830.5 401.429
831.5 395
832.5 391.286
833.5 331.857
834.5 325.429
835.5 353.143
836.5 420.429
837.5 368.286
838.5 356.143
839.5 374.429
840.5 348.143
841.5 396.571
842.5 371
843.5 364.571
844.5 362
845.5 383.714
846.5 441.429
847.5 428.857
848.5 419.714
849.5 472
850.5 396.714
851.5 437
852.5 424
853.5 390
854.5 369.286
855.5 357.714
856.5 355.286
857.5 418.286
858.5 425
859.5 432.571
860.5 382.714
861.5 379
862.5 366.857
863.5 410.857
864.5 445.286
865.5 486.857
866.5 436.571
867.5 452.143
868.5 530.429
869.5 685.429
870.5 505.143
871.5 420.714
872.5 425
873.5 388.143
874.5 426.429
875.5 468
876.5 458.857
877.5 512.857
878.5 524.571
879.5 481.286
880.5 474.286
881.5 449
882.5 478.571
883.5 425.429
884.5 411.429
885.5 489
886.5 563.143
887.5 489.714
888.5 453.857
889.5 468.714
890.5 409.429
891.5 513.714
892.5 494.429
893.5 466.429
894.5 492.857
895.5 600
896.5 431
897.5 562.857
898.5 555.714
899.5 447.286
900.5 524.857
901.5 478.143
902.5 482.429
903.5 560
904.5 509.857
905.5 531.714
906.5 534.286
907.5 543.857
908.5 514.857
909.5 623.857
910.5 622.143
911.5 547.714
912.5 535.857
913.5 600.857
914.5 601.571
915.5 582.429
916.5 613.429
917.5 564.143
918.5 418.857
919.5 507.286
920.5 551.286
921.5 493
922.5 448
923.5 559.286
924.5 510.429
925.5 497
926.5 533.143
927.5 536
928.5 472.429
929.5 546.571
930.5 595.571
931.5 580.286
932.5 541
933.5 488.143
934.5 519.714
935.5 477.571
936.5 524.571
937.5 548
938.5 521
939.5 608.286
940.5 553.429
941.5 512.286
942.5 425.286
943.5 483.429
944.5 452.857
945.5 435.143
946.5 488.429
947.5 455.571
948.5 436.571
949.5 412.857
950.5 436.429
951.5 365.571
952.5 404.714
953.5 399.714
954.5 413.714
955.5 419.143
956.5 374.714
957.5 341.286
958.5 330.571
959.5 381.143
960.5 360.143
961.5 331.143
962.5 326.571
963.5 441.286
964.5 659.857
965.5 1266.57
966.5 1830
967.5 1396.57
968.5 669.714
969.5 443.286
970.5 391.429
971.5 349.571
972.5 330
973.5 425.143
974.5 263.571
975.5 341
976.5 400
977.5 275.143
978.5 324.286
979.5 291.714
980.5 341.286
981.5 323.143
982.5 317.571
983.5 191.714
984.5 236.429
985.5 324.286
986.5 361.857
987.5 296.714
988.5 288.714
989.5 316.286
990.5 282.571
991.5 277.143
992.5 329.857
993.5 285.429
994.5 324.143
995.5 319.714
996.5 260.286
997.5 227.286
998.5 283.857
999.5 326.286
1000.5 322
1001.5 680.571
1002.5 617.286
1003.5 389.571
1004.5 287.429
1005.5 339.143
1006.5 326.857
1007.5 263.143
1008.5 283.857
1009.5 271.429
1010.5 269.429
1011.5 284.143
1012.5 230.571
1013.5 266.714
1014.5 238.286
1015.5 274.571
1016.5 312
1017.5 246
1018.5 278.714
1019.5 201.429
1020.5 198.143
1021.5 224.571
1022.5 217
1023.5 354.286
1024.5 549.857
1025.5 476.429
1026.5 300.571
1027.5 243.857
1028.5 215.571
1029.5 238.429
1030.5 220.143
1031.5 240.857
1032.5 265.286
1033.5 252.571
1034.5 219.143
1035.5 184.857
1036.5 229.857
1037.5 213.429
1038.5 194.143
1039.5 185
1040.5 213.571
1041.5 192.429
1042.5 226
1043.5 227.286
1044.5 181.143
1045.5 218.143
1046.5 180
1047.5 182.286
1048.5 222.571
1049.5 200.286
1050.5 274.143
1051.5 217.143
1052.5 159.571
1053.5 184.857
1054.5 173.143
1055.5 148.286
1056.5 182
1057.5 133.571
1058.5 156.714
1059.5 172.857
1060.5 248.286
1061.5 168
1062.5 161
1063.5 239.571
1064.5 195.857
1065.5 174.143
1066.5 142.429
1067.5 128
1068.5 185
1069.5 158.857
1070.5 191.143
1071.5 225.714
1072.5 360.286
1073.5 559.571
1074.5 722.571
1075.5 347.857
1076.5 215.429
1077.5 151.571
1078.5 110.857
1079.5 190.286
1080.5 153.286
1081.5 165.143
1082.5 154
1083.5 172.143
1084.5 163.143
1085.5 145.571
1086.5 136.714
1087.5 178.143
1088.5 135.286
1089.5 149
1090.5 147.286
1091.5 159.429
1092.5 153.857
1093.5 214.286
1094.5 148.571
1095.5 179.857
1096.5 150.857
1097.5 144.429
1098.5 145.571
1099.5 194.857
1100.5 168.857
1101.5 205.429
1102.5 176.429
1103.5 148.571
1104.5 165.714
1105.5 139.429
1106.5 188.143
1107.5 168.857
1108.5 175
1109.5 133.714
1110.5 172
1111.5 141.857
1112.5 117
1113.5 190.286
1114.5 148.714
1115.5 190.714
1116.5 161
1117.5 172
1118.5 197.286
1119.5 174.143
1120.5 188.429
1121.5 285.857
1122.5 643.286
1123.5 2563.14
1124.5 9000
1125.5 20156.7
1126.5 21852.3
1127.5 9831.29
1128.5 2123.86
1129.5 534.429
1130.5 201
1131.5 111
1132.5 135
1133.5 112.429
1134.5 107.286
1135.5 110.143
1136.5 85
1137.5 126.571
1138.5 138.429
1139.5 123.429
1140.5 111.714
1141.5 93.4286
1142.5 133
1143.5 146.286
1144.5 58.1429
1145.5 73.4286
1146.5 117.286
1147.5 139.143
1148.5 157.143
1149.5 132.714
1150.5 121.429
1151.5 117.143
1152.5 209.429
1153.5 759.571
1154.5 3134.14
1155.5 10183.4
1156.5 21734.4
1157.5 21261.1
1158.5 8722
1159.5 1648.14
1160.5 383.714
1161.5 114.143
1162.5 56.7143
1163.5 65
1164.5 5.85714
1165.5 89.1429
1166.5 16.4286
1167.5 56.5714
1168.5 50.8571
1169.5 64.8571
1170.5 57.4286
1171.5 29.2857
1172.5 46.8571
1173.5 40.7143
1174.5 36.7143
1175.5 41.2857
1176.5 55.4286
1177.5 32.8571
1178.5 45.5714
1179.5 106.429
1180.5 45.4286
1181.5 74
1182.5 180.571
1183.5 141
1184.5 118.143
1185.5 94.2857
1186.5 119.429
1187.5 140.286
1188.5 158.429
1189.5 158.714
1190.5 127.571
1191.5 43.4286
1192.5 62.1429
1193.5 46.7143
1194.5 41.5714
1195.5 31
1196.5 47.5714
1197.5 53.8571
1198.5 23.5714
1199.5 69.1429
1200.5 34.1429
1201.5 29.2857
1202.5 65.8571
1203.5 24
1204.5 14.4286
1205.5 25.4286
1206.5 38.8571
1207.5 43.4286
1208.5 70.4286
1209.5 45.2857
1210.5 47.5714
1211.5 54.1429
1212.5 61.2857
1213.5 30.4286
1214.5 6.14285
1215.5 33.7143
1216.5 0.857141
1217.5 33.4286
1218.5 37.4286
1219.5 25
1220.5 18.5714
1221.5 29.1429
1222.5 2.57143
1223.5 56.5714
1224.5 67.2857
1225.5 17.1429
1226.5 63.8571
1227.5 9.28571
1228.5 7.42857
1229.5 65.8571
1230.5 31.8571
1231.5 25.1429
1232.5 30
1233.5 53.5714
1234.5 25
1235.5 17.5714
1236.5 30.2857
1237.5 49.7143
1238.5 32.2857
1239.5 22.8571
1240.5 30.2857
1241.5 50.4286
1242.5 6.57143
1243.5 51.7143
1244.5 54.7143
1245.5 53.1429
1246.5 38.5714
1247.5 25.1429
1248.5 27.5714
1249.5 33
1250.5 57.2857
1251.5 72
1252.5 47.2857
1253.5 65
1254.5 21.4286
1255.5 97.8571
1256.5 6.71428
1257.5 31.1429
1258.5 19.1429
1259.5 36.2857
1260.5 38.8571
1261.5 21.5714
1262.5 19.7143
1263.5 73.4286
1264.5 77.1429
1265.5 71
1266.5 77.1429
1267.5 41.7143
1268.5 60.4286
1269.5 36.8571
1270.5 31.8571
1271.5 8.71428
1272.5 26.1429
1273.5 30
1274.5 8.42857
1275.5 44
1276.5 37.1429
1277.5 49.1429
1278.5 47.8571
1279.5 64.1429
1280.5 12.1429
1281.5 27.8571
1282.5 100.286
1283.5 88.2857
1284.5 82.2857
1285.5 68
1286.5 68.4286
1287.5 0.999998
1288.5 54.8571
1289.5 62.1429
1290.5 57.2857
1291.5 49.1429
1292.5 39.4286
1293.5 28.4286
1294.5 38.2857
1295.5 38.4286
1296.5 55.2857
1297.5 48.4286
1298.5 51.1429
1299.5 49.7143
1300.5 55.4286
1301.5 32.8571
1302.5 21.8571
1303.5 61.2857
1304.5 57.1429
1305.5 -7.85714
1306.5 45.4286
1307.5 31.7143
1308.5 24.1429
1309.5 63.4286
1310.5 25.5714
1311.5 30.8571
1312.5 31.2857
1313.5 76.5714
1314.5 64.1429
1315.5 42.5714
1316.5 60.7143
1317.5 31.5714
1318.5 37.5714
1319.5 62.7143
1320.5 28.7143
1321.5 32.7143
1322.5 19.4286
1323.5 33.5714
1324.5 50.2857
1325.5 44.5714
1326.5 1.14286
1327.5 62.5714
1328.5 63.5714
1329.5 61.5714
1330.5 25.2857
1331.5 57.8571
1332.5 33.2857
1333.5 36.4286
1334.5 40.4286
1335.5 25.7143
1336.5 18.7143
1337.5 66.7143
1338.5 34
1339.5 13.5714
1340.5 7.85714
1341.5 55.7143
1342.5 76.8571
1343.5 30.1429
1344.5 52.4286
1345.5 64.4286
1346.5 19
1347.5 20.1429
1348.5 54.4286
1349.5 26.5714
1350.5 72.1429
1351.5 30.7143
1352.5 27.1429
1353.5 46.7143
1354.5 64
1355.5 24.7143
1356.5 48.2857
1357.5 60.1429
1358.5 29.4286
1359.5 33.2857
1360.5 31.1429
1361.5 53.2857
1362.5 62.2857
1363.5 65
1364.5 36.1429
1365.5 26.2857
1366.5 22.8571
1367.5 43.8571
1368.5 15.8571
1369.5 35.4286
1370.5 74
1371.5 46.2857
1372.5 19.7143
1373.5 50.2857
1374.5 65.8571
1375.5 35.8571
1376.5 36.4286
1377.5 36.5714
1378.5 52.5714
1379.5 23.2857
1380.5 0.571427
1381.5 5.28571
1382.5 -12.8571
1383.5 25.8571
1384.5 49.1429
1385.5 40.4286
1386.5 45.4286
1387.5 5.57143
1388.5 29.7143
1389.5 31.4286
1390.5 47.7143
1391.5 49.2857
1392.5 51.5714
1393.5 10.2857
1394.5 37.1429
1395.5 -7.42857
1396.5 24.5714
1397.5 53.7143
1398.5 39.4286
1399.5 41.1429
1400.5 47.5714
1401.5 36
1402.5 27.5714
1403.5 6.42857
1404.5 31.2857
1405.5 47.1429
1406.5 61
1407.5 31.5714
1408.5 10.1429
1409.5 32.7143
1410.5 25.8571
1411.5 51.5714
1412.5 42.2857
1413.5 42.8571
1414.5 33.4286
1415.5 5.28571
1416.5 49.4286
1417.5 53.2857
1418.5 29.2857
1419.5 33.8571
1420.5 46
1421.5 18.4286
1422.5 59.7143
1423.5 52
1424.5 40.5714
1425.5 17.4286
1426.5 60.5714
1427.5 105.143
1428.5 106.857
1429.5 137.857
1430.5 96.1429
1431.5 49.2857
1432.5 65
1433.5 48.1429
1434.5 24.4286
1435.5 27.8571
1436.5 47.4286
1437.5 66.7143
1438.5 69.5714
1439.5 49.8571
1440.5 50.7143
1441.5 7.28571
1442.5 44.8571
1443.5 51
1444.5 0.571427
1445.5 57.2857
1446.5 44
1447.5 44.1429
1448.5 36.8571
1449.5 12
1450.5 52.7143
1451.5 27.1429
