# EGG_ProjY_E4888.5(9.5)_B4862.5(3.5)_B4931.0(3.0)
# X axis : Energy (keV) [Y axis]
# Y axis : Counts/1 keV
# N Bins : 12000
# X Min : 0
# X Max : 12000
# X value at the center of the bins
0.5 0
1.5 0
2.5 0
3.5 0
4.5 0
5.5 227.846
6.5 186.846
7.5 74.6154
8.5 84.0769
9.5 109.308
10.5 179.308
11.5 159.231
12.5 108.308
13.5 140.308
14.5 187
15.5 229.846
16.5 229.923
17.5 254.846
18.5 394.154
19.5 501.154
20.5 471.923
21.5 470.615
22.5 592.692
23.5 522.462
24.5 699.538
25.5 786
26.5 898.846
27.5 918.538
28.5 1103.38
29.5 1135.15
30.5 1282.92
31.5 1026.08
32.5 1412.23
33.5 1416.69
34.5 1290.31
35.5 1227.77
36.5 1391
37.5 1420.08
38.5 1508.92
39.5 1547.38
40.5 1523.77
41.5 1592.15
42.5 1564.46
43.5 1550.15
44.5 1501.15
45.5 1588.77
46.5 1579.92
47.5 1680.69
48.5 1659.92
49.5 1536.85
50.5 1501.77
51.5 1467.69
52.5 1652.08
53.5 1626.46
54.5 1576
55.5 1539.77
56.5 1853.62
57.5 1806.69
58.5 2120.23
59.5 2245.54
60.5 2133.23
61.5 1812.15
62.5 1836.69
63.5 1754.15
64.5 1708.23
65.5 1737.15
66.5 1777.08
67.5 1740.46
68.5 2020.23
69.5 1670.62
70.5 1719.38
71.5 1932.77
72.5 1969.69
73.5 2279.77
74.5 2826.23
75.5 3086.54
76.5 3094.92
77.5 3548.92
78.5 2278.23
79.5 1867
80.5 1783.15
81.5 1804.23
82.5 1726.62
83.5 1790.46
84.5 1762.54
85.5 2055.54
86.5 2098.92
87.5 2626.62
88.5 2210.54
89.5 2134.77
90.5 2100.08
91.5 1897.46
92.5 1718.08
93.5 1765.69
94.5 1777.23
95.5 1876.69
96.5 1715.31
97.5 2058.23
98.5 1979.85
99.5 1839.08
100.5 1773.92
101.5 1894.92
102.5 1939.46
103.5 1861.77
104.5 1809.15
105.5 1876.38
106.5 1879.46
107.5 1921.46
108.5 2186.31
109.5 2025.31
110.5 2100.54
111.5 2014.15
112.5 1937.15
113.5 2186.77
114.5 2177.08
115.5 2128.54
116.5 1985.38
117.5 2226.15
118.5 2143.92
119.5 2290.08
120.5 2166.46
121.5 2411.31
122.5 2195.08
123.5 2097.23
124.5 2284.31
125.5 2594.69
126.5 2313.85
127.5 2179.92
128.5 2516.46
129.5 2432.62
130.5 2124
131.5 2246.46
132.5 2330.38
133.5 2301.54
134.5 2344.31
135.5 2419.31
136.5 2403.38
137.5 2348.62
138.5 2157.15
139.5 2240.23
140.5 2328.38
141.5 2198.31
142.5 2274.85
143.5 2399.38
144.5 2411.54
145.5 2630.77
146.5 2493.38
147.5 2438.85
148.5 2400.23
149.5 2581.08
150.5 2418.69
151.5 2569.38
152.5 2441.62
153.5 2567.23
154.5 2401
155.5 2437
156.5 2155.62
157.5 2371.85
158.5 2592.62
159.5 2493.23
160.5 2409.38
161.5 2424.23
162.5 2361.46
163.5 2501
164.5 2357.23
165.5 2351.77
166.5 2608.85
167.5 2261.08
168.5 2414.85
169.5 2456.85
170.5 2493.23
171.5 2460.08
172.5 2790.23
173.5 3077.23
174.5 3261.77
175.5 2983.85
176.5 2836.92
177.5 3022.54
178.5 2954
179.5 3016.77
180.5 3292.46
181.5 3128.77
182.5 3300.69
183.5 3131.46
184.5 3078.54
185.5 2906
186.5 3039.23
187.5 3178.23
188.5 3353
189.5 3056.85
190.5 3003.15
191.5 2914.23
192.5 2993.85
193.5 3110.54
194.5 3006.69
195.5 3272.31
196.5 2897.92
197.5 3088.15
198.5 2865.46
199.5 2910.92
200.5 2777.15
201.5 2688.31
202.5 3037.08
203.5 2739
204.5 2730.62
205.5 2769.08
206.5 2911.85
207.5 2969.38
208.5 3130.31
209.5 3064
210.5 3221.77
211.5 3346.46
212.5 3206
213.5 3164.69
214.5 3043.38
215.5 3162.85
216.5 3386.69
217.5 3375.54
218.5 3056.77
219.5 3232.77
220.5 3219.62
221.5 2966.46
222.5 3095.62
223.5 3109.46
224.5 2878.23
225.5 2829.69
226.5 2861.77
227.5 2869.77
228.5 2709.15
229.5 2881.38
230.5 2847
231.5 2732
232.5 2786.08
233.5 2582.54
234.5 2588.92
235.5 2874.85
236.5 2855.69
237.5 2728.62
238.5 2775.62
239.5 2888.69
240.5 2764.77
241.5 2880.08
242.5 2849.08
243.5 2943.62
244.5 2923.23
245.5 2996.08
246.5 2705.08
247.5 2835
248.5 2686.38
249.5 2930.15
250.5 2946.46
251.5 2734.46
252.5 2599.38
253.5 2661.54
254.5 2759.46
255.5 2715.46
256.5 2720.54
257.5 2677.62
258.5 2625.46
259.5 2600
260.5 2506.08
261.5 2371.69
262.5 2369.77
263.5 2661.85
264.5 2612.54
265.5 2691.08
266.5 2573
267.5 2659.15
268.5 2744.08
269.5 2419.38
270.5 2574.92
271.5 2479.31
272.5 2485.08
273.5 2677.85
274.5 2702.85
275.5 2402.69
276.5 2730.08
277.5 2726.46
278.5 2606.69
279.5 2767.46
280.5 2540.62
281.5 2511.77
282.5 2673.85
283.5 2594.77
284.5 2581
285.5 2716.62
286.5 2534.38
287.5 2504.77
288.5 2383.46
289.5 2084.69
290.5 2471.15
291.5 2331.38
292.5 2322.92
293.5 2308.69
294.5 2360.85
295.5 2172.92
296.5 2365
297.5 2429.08
298.5 2527.85
299.5 2532.31
300.5 2145.69
301.5 2414.08
302.5 2335.46
303.5 2496.54
304.5 2584.62
305.5 2570.62
306.5 2492
307.5 2540.15
308.5 2487
309.5 2433.08
310.5 2580.31
311.5 2554.38
312.5 2467.54
313.5 2383.85
314.5 2418.31
315.5 2355.54
316.5 2579.54
317.5 2491.85
318.5 2494.92
319.5 2491.38
320.5 2377.15
321.5 2616.31
322.5 2438.92
323.5 2471.31
324.5 2550.69
325.5 2341.31
326.5 2348.92
327.5 2233.77
328.5 2335.31
329.5 2201.23
330.5 2087.85
331.5 2052.38
332.5 1809.77
333.5 1908.85
334.5 2079.31
335.5 2047.31
336.5 2134.38
337.5 2321.85
338.5 1987.31
339.5 2023.23
340.5 2218.15
341.5 1961.08
342.5 1936.46
343.5 2012.15
344.5 1921.69
345.5 1883.62
346.5 1949.38
347.5 1879.23
348.5 1925.46
349.5 1767.46
350.5 1923.08
351.5 2053.15
352.5 1930.92
353.5 1873.92
354.5 1937.08
355.5 1877.46
356.5 1801.54
357.5 1677.46
358.5 1808.62
359.5 1753.38
360.5 1560.15
361.5 1806.46
362.5 1646.77
363.5 1820.54
364.5 1789.46
365.5 1757.08
366.5 1819.08
367.5 1870.15
368.5 1735.15
369.5 1950.77
370.5 1969.62
371.5 1708.31
372.5 1340.31
373.5 1679.38
374.5 1729.77
375.5 1441.69
376.5 1729.62
377.5 1575.23
378.5 1732.23
379.5 1700.46
380.5 1670.15
381.5 1717.08
382.5 1605.62
383.5 1460.31
384.5 1611.85
385.5 1465.46
386.5 1473.31
387.5 1643
388.5 1570.46
389.5 1437.54
390.5 1525.85
391.5 1634
392.5 1595.08
393.5 1383.46
394.5 1533.08
395.5 1377.46
396.5 1160.08
397.5 1332.08
398.5 1144
399.5 1209.23
400.5 1210.92
401.5 1220.08
402.5 1659.46
403.5 2396.31
404.5 2669.15
405.5 1789.38
406.5 1416.08
407.5 1374.23
408.5 1434.54
409.5 1467.46
410.5 1301.62
411.5 1323.46
412.5 1251.08
413.5 1276.54
414.5 1149.62
415.5 1107.62
416.5 1167.23
417.5 1187.54
418.5 1080.85
419.5 976.308
420.5 873.769
421.5 789.615
422.5 820.154
423.5 798.846
424.5 1009.77
425.5 1028.54
426.5 1109.85
427.5 1150.31
428.5 1295.54
429.5 1442.46
430.5 1259.15
431.5 1301.38
432.5 1295.38
433.5 1277.92
434.5 1374.69
435.5 1415.46
436.5 1428.77
437.5 1327.23
438.5 1338.08
439.5 1409.85
440.5 1376.85
441.5 1320.62
442.5 1436.46
443.5 1745.54
444.5 2240.08
445.5 1910.62
446.5 1396.38
447.5 1338.23
448.5 1301.08
449.5 1314.54
450.5 1152.69
451.5 1147.69
452.5 1121.15
453.5 980.231
454.5 945.769
455.5 984.462
456.5 1005.31
457.5 1106.46
458.5 1089.38
459.5 1229.08
460.5 1003.15
461.5 1293.15
462.5 1170.69
463.5 1077
464.5 1021.92
465.5 1063.77
466.5 1123.15
467.5 1179.23
468.5 1327.85
469.5 1214.92
470.5 1530.08
471.5 1452.15
472.5 1559.15
473.5 1560.85
474.5 1391.46
475.5 1393.08
476.5 1520.92
477.5 1366.77
478.5 1279.31
479.5 1352.08
480.5 1214.38
481.5 1139.92
482.5 1183.38
483.5 1150.62
484.5 1171.31
485.5 1109.08
486.5 987.615
487.5 1161.62
488.5 976.846
489.5 1001
490.5 1045.31
491.5 999.692
492.5 1145.77
493.5 1293.77
494.5 1318.23
495.5 1592.38
496.5 1580
497.5 1761.85
498.5 1811
499.5 2073.31
500.5 2199.92
501.5 1985.31
502.5 2424.08
503.5 2555.31
504.5 2861.54
505.5 4269.85
506.5 8904.31
507.5 14397.3
508.5 19938.9
509.5 23590.2
510.5 27032.6
511.5 22784.4
512.5 13552.3
513.5 5930.77
514.5 2837.85
515.5 1910.62
516.5 1508.46
517.5 1081.69
518.5 994
519.5 1181.92
520.5 1060.69
521.5 883.385
522.5 713.154
523.5 902.846
524.5 732.308
525.5 790.308
526.5 682.077
527.5 657.462
528.5 695.846
529.5 589
530.5 460.769
531.5 564.769
532.5 504
533.5 585.538
534.5 559.462
535.5 513.769
536.5 595.231
537.5 720.308
538.5 837.154
539.5 766
540.5 805.462
541.5 680.077
542.5 906
543.5 792.077
544.5 867.077
545.5 717
546.5 841.077
547.5 741.692
548.5 817.231
549.5 906.462
550.5 805.308
551.5 770.308
552.5 859
553.5 800.462
554.5 769.462
555.5 873.769
556.5 796
557.5 794.692
558.5 691.846
559.5 867.538
560.5 808.462
561.5 845
562.5 910.923
563.5 785
564.5 959
565.5 849.308
566.5 870.154
567.5 903.538
568.5 900.615
569.5 812.692
570.5 846.154
571.5 840.615
572.5 897.462
573.5 886.231
574.5 881.308
575.5 814.615
576.5 852.462
577.5 809.615
578.5 853.154
579.5 884.615
580.5 755.385
581.5 638.077
582.5 827.231
583.5 821.154
584.5 874.385
585.5 708.769
586.5 671.385
587.5 768.308
588.5 761.231
589.5 791.308
590.5 796.077
591.5 778.769
592.5 696.846
593.5 807.462
594.5 781.846
595.5 829.308
596.5 805.923
597.5 814.538
598.5 834.615
599.5 706.846
600.5 724.308
601.5 879.308
602.5 772.846
603.5 730.538
604.5 778.538
605.5 816.385
606.5 694.615
607.5 814.769
608.5 707.923
609.5 764.462
610.5 727.154
611.5 837.923
612.5 881.923
613.5 866.231
614.5 692.769
615.5 801.846
616.5 730.154
617.5 777.385
618.5 838
619.5 877.077
620.5 871.462
621.5 899.923
622.5 803.923
623.5 852.308
624.5 817.385
625.5 876.154
626.5 998.385
627.5 1098.85
628.5 1436.92
629.5 1167.92
630.5 952.692
631.5 848.154
632.5 877.385
633.5 823.615
634.5 913.923
635.5 918.462
636.5 950.462
637.5 1227.85
638.5 1015.62
639.5 824.385
640.5 751.385
641.5 805.538
642.5 751.154
643.5 826.846
644.5 823.923
645.5 829.615
646.5 760.385
647.5 783.923
648.5 682.846
649.5 742.846
650.5 901.308
651.5 824.923
652.5 787.923
653.5 656.308
654.5 719.462
655.5 837
656.5 719.308
657.5 760.692
658.5 789.923
659.5 657.462
660.5 736.846
661.5 770
662.5 718
663.5 802.846
664.5 919.769
665.5 799.154
666.5 810.308
667.5 640.462
668.5 713.923
669.5 699.769
670.5 784.692
671.5 740.615
672.5 724.769
673.5 739.231
674.5 757.538
675.5 733.923
676.5 764.154
677.5 661.462
678.5 719.308
679.5 730.692
680.5 691.077
681.5 798.769
682.5 806.923
683.5 741.846
684.5 784.462
685.5 818.462
686.5 897.615
687.5 804.846
688.5 746.846
689.5 767.692
690.5 908.615
691.5 896.923
692.5 730.615
693.5 684.308
694.5 793.385
695.5 781.308
696.5 831.615
697.5 863.154
698.5 878.769
699.5 847.308
700.5 697.923
701.5 831.154
702.5 737.846
703.5 725.154
704.5 866.308
705.5 797.769
706.5 825.308
707.5 868.615
708.5 750.385
709.5 883.769
710.5 834.846
711.5 750.462
712.5 664.385
713.5 758.385
714.5 727
715.5 630.154
716.5 777.462
717.5 751.846
718.5 744.385
719.5 620.769
720.5 746.077
721.5 754.385
722.5 792.769
723.5 696.769
724.5 784.231
725.5 911.154
726.5 1068.77
727.5 1306.23
728.5 914.077
729.5 853.615
730.5 816.385
731.5 687.154
732.5 751.308
733.5 772.462
734.5 691.692
735.5 789.077
736.5 851.077
737.5 749
738.5 823
739.5 689.385
740.5 722.231
741.5 805
742.5 778.077
743.5 711.154
744.5 666
745.5 802.308
746.5 779.154
747.5 824.615
748.5 812.692
749.5 830.308
750.5 789.923
751.5 834
752.5 841.385
753.5 730.769
754.5 813.615
755.5 896.231
756.5 868.923
757.5 863.231
758.5 1007
759.5 2426.23
760.5 5747.62
761.5 6047
762.5 2989
763.5 1172.31
764.5 819.846
765.5 797.231
766.5 720.769
767.5 758.077
768.5 827.308
769.5 803.308
770.5 723.385
771.5 719.769
772.5 814.692
773.5 813.231
774.5 733.077
775.5 790
776.5 821.077
777.5 756.231
778.5 890.385
779.5 754.769
780.5 851.077
781.5 801.846
782.5 812.769
783.5 808.231
784.5 764.615
785.5 845.154
786.5 791.077
787.5 960.462
788.5 884.538
789.5 811.231
790.5 782.231
791.5 931.769
792.5 779
793.5 779.769
794.5 828.615
795.5 839.615
796.5 891.769
797.5 830.308
798.5 901.769
799.5 712.846
800.5 799.154
801.5 865.462
802.5 870.615
803.5 804.308
804.5 1267.62
805.5 2517.08
806.5 4852.08
807.5 4492.46
808.5 2243.31
809.5 1025.15
810.5 727.154
811.5 840.692
812.5 661.462
813.5 918.077
814.5 804.154
815.5 742.692
816.5 773.385
817.5 851.846
818.5 757
819.5 874.231
820.5 701.462
821.5 852
822.5 900
823.5 761.538
824.5 848.846
825.5 850.385
826.5 860.769
827.5 832.385
828.5 812.615
829.5 865.231
830.5 861.923
831.5 742.231
832.5 785.923
833.5 972
834.5 805.538
835.5 783.154
836.5 786.538
837.5 757.154
838.5 878.692
839.5 765.615
840.5 739
841.5 806.385
842.5 812.154
843.5 847.154
844.5 966.462
845.5 951.615
846.5 816.308
847.5 883.923
848.5 987.462
849.5 837.462
850.5 882.846
851.5 905.538
852.5 942
853.5 760.154
854.5 826.923
855.5 935.538
856.5 990.154
857.5 897.538
858.5 970.769
859.5 803.538
860.5 881.769
861.5 963.615
862.5 1018.31
863.5 899.385
864.5 811.923
865.5 980.154
866.5 963.077
867.5 1056
868.5 1283.46
869.5 1315.46
870.5 1166.54
871.5 1089.46
872.5 943.077
873.5 891.538
874.5 884.692
875.5 981.077
876.5 1151.23
877.5 1185.54
878.5 1152.31
879.5 1123.38
880.5 885.692
881.5 887.692
882.5 994.846
883.5 887.231
884.5 919.846
885.5 878.385
886.5 1020.77
887.5 1091
888.5 974.154
889.5 947.923
890.5 944.308
891.5 920.462
892.5 913.308
893.5 970.462
894.5 1046.62
895.5 940.923
896.5 1061.92
897.5 1031.46
898.5 1076.15
899.5 1091.62
900.5 1025.31
901.5 1056.46
902.5 1036.23
903.5 990.615
904.5 1069.08
905.5 1116.38
906.5 1100.77
907.5 1066.15
908.5 1107.31
909.5 1228.85
910.5 1151.23
911.5 1203.69
912.5 1165.31
913.5 1129.69
914.5 1026.46
915.5 1149.46
916.5 1085.08
917.5 956.769
918.5 1134.92
919.5 1070.46
920.5 1030.08
921.5 1056.54
922.5 1070.77
923.5 1001.54
924.5 1052.31
925.5 945.538
926.5 931.462
927.5 1008.46
928.5 1012.23
929.5 1052.69
930.5 1098.38
931.5 1029.69
932.5 1009.46
933.5 1127.54
934.5 1040.62
935.5 1138.31
936.5 1049.08
937.5 1091.31
938.5 1128.77
939.5 1118.69
940.5 1062.46
941.5 1150.46
942.5 1162.15
943.5 1121.77
944.5 1154.69
945.5 956.846
946.5 976.385
947.5 998.385
948.5 960.923
949.5 806.308
950.5 877.077
951.5 860.231
952.5 786
953.5 900.154
954.5 843.615
955.5 847.615
956.5 864.769
957.5 801.923
958.5 783.231
959.5 770.615
960.5 786.846
961.5 783.077
962.5 777.923
963.5 732.077
964.5 658.308
965.5 688.769
966.5 718.077
967.5 630.923
968.5 550.769
969.5 713.231
970.5 608.385
971.5 540.615
972.5 621.846
973.5 715.231
974.5 523
975.5 762.692
976.5 640.846
977.5 763.846
978.5 731.538
979.5 670.923
980.5 658.231
981.5 669.615
982.5 627.769
983.5 760.923
984.5 702.615
985.5 684
986.5 726.308
987.5 731.923
988.5 645.769
989.5 678.692
990.5 575.846
991.5 639.692
992.5 582.308
993.5 692.077
994.5 599.154
995.5 574.538
996.5 575.154
997.5 669.154
998.5 855.692
999.5 1496.62
1000.5 3881.92
1001.5 7230.08
1002.5 6581.38
1003.5 2980.15
1004.5 1129.92
1005.5 682.385
1006.5 630.769
1007.5 706.077
1008.5 716.846
1009.5 628.615
1010.5 697.769
1011.5 603.538
1012.5 605
1013.5 595.462
1014.5 643.077
1015.5 574.769
1016.5 651.923
1017.5 594.769
1018.5 704.538
1019.5 689.385
1020.5 546.154
1021.5 597.538
1022.5 533.769
1023.5 600.692
1024.5 737.692
1025.5 663.308
1026.5 593.385
1027.5 541.846
1028.5 471.077
1029.5 447.692
1030.5 467
1031.5 510.231
1032.5 482.923
1033.5 332.308
1034.5 372.538
1035.5 438.769
1036.5 349.308
1037.5 362.077
1038.5 332.462
1039.5 408.308
1040.5 374.154
1041.5 465.615
1042.5 447.846
1043.5 373.846
1044.5 332.692
1045.5 417.615
1046.5 404.538
1047.5 372.462
1048.5 371.846
1049.5 408.769
1050.5 512
1051.5 503.615
1052.5 358.462
1053.5 431.923
1054.5 436.692
1055.5 471.385
1056.5 429.615
1057.5 416
1058.5 487.923
1059.5 405.385
1060.5 369.615
1061.5 357.846
1062.5 375.692
1063.5 334.692
1064.5 348.231
1065.5 345.308
1066.5 335
1067.5 372.692
1068.5 376
1069.5 278.385
1070.5 433.308
1071.5 760.538
1072.5 1774.62
1073.5 3717.69
1074.5 4712.54
1075.5 2766.46
1076.5 728
1077.5 471.615
1078.5 403.538
1079.5 356.231
1080.5 349.308
1081.5 341.077
1082.5 366.692
1083.5 373.923
1084.5 308.615
1085.5 366.154
1086.5 373.692
1087.5 361.615
1088.5 335.846
1089.5 375.308
1090.5 390.308
1091.5 307.846
1092.5 384.077
1093.5 373.385
1094.5 337.769
1095.5 352.308
1096.5 275.385
1097.5 355.462
1098.5 353.077
1099.5 346.923
1100.5 310.615
1101.5 350.385
1102.5 359.308
1103.5 407.462
1104.5 329.538
1105.5 347.692
1106.5 337.923
1107.5 440.308
1108.5 338.231
1109.5 423.538
1110.5 383.769
1111.5 496
1112.5 403.231
1113.5 409.077
1114.5 348.385
1115.5 360.692
1116.5 495.923
1117.5 374.846
1118.5 442.385
1119.5 384.615
1120.5 455.615
1121.5 541.615
1122.5 1282.08
1123.5 4227.92
1124.5 13574.6
1125.5 32126.5
1126.5 35915.6
1127.5 16567.6
1128.5 3815.31
1129.5 928.231
1130.5 413.231
1131.5 365.308
1132.5 291.462
1133.5 301.231
1134.5 182
1135.5 262.231
1136.5 237.846
1137.5 279.462
1138.5 291.923
1139.5 276.077
1140.5 284.846
1141.5 340.923
1142.5 276.692
1143.5 300
1144.5 224.615
1145.5 311.231
1146.5 328.846
1147.5 320.846
1148.5 266.385
1149.5 360.846
1150.5 253.538
1151.5 351.154
1152.5 663.923
1153.5 1872.23
1154.5 6354.85
1155.5 19261.6
1156.5 42812.5
1157.5 43083.3
1158.5 17554.7
1159.5 3807.85
1160.5 887.769
1161.5 332.846
1162.5 220.769
1163.5 153.769
1164.5 200.231
1165.5 155.308
1166.5 146.769
1167.5 127.692
1168.5 94.5385
1169.5 122.231
1170.5 95.2308
1171.5 122.923
1172.5 65.0769
1173.5 124.462
1174.5 124.769
1175.5 155.846
1176.5 120.462
1177.5 121.154
1178.5 115.462
1179.5 166.692
1180.5 171.615
1181.5 154.154
1182.5 136.154
1183.5 176.769
1184.5 189.077
1185.5 138
1186.5 163.385
1187.5 133.846
1188.5 125.769
1189.5 101.846
1190.5 113.462
1191.5 152.308
1192.5 122.923
1193.5 116.538
1194.5 100.615
1195.5 156.769
1196.5 100.154
1197.5 111.385
1198.5 195.385
1199.5 118.308
1200.5 185.769
1201.5 156.692
1202.5 161.385
1203.5 114.538
1204.5 138.308
1205.5 145.231
1206.5 122.846
1207.5 170.538
1208.5 117
1209.5 157.308
1210.5 159.077
1211.5 171.538
1212.5 182.462
1213.5 122.077
1214.5 148.308
1215.5 170.846
1216.5 184.846
1217.5 134.231
1218.5 184
1219.5 98.3846
1220.5 224.769
1221.5 212.846
1222.5 209.692
1223.5 178
1224.5 209.692
1225.5 191.231
1226.5 191
1227.5 154.385
1228.5 151.077
1229.5 114.154
1230.5 176.538
1231.5 223.385
1232.5 208.231
1233.5 274.077
1234.5 252.231
1235.5 225.846
1236.5 209.615
1237.5 220.692
1238.5 150.462
1239.5 131
1240.5 117.769
1241.5 131.846
1242.5 116.308
1243.5 164.692
1244.5 151.615
1245.5 157.154
1246.5 164.308
1247.5 110.846
1248.5 169.231
1249.5 135.462
1250.5 147.769
1251.5 157.154
1252.5 121.154
1253.5 122.692
1254.5 133.308
1255.5 224.154
1256.5 187.769
1257.5 157.846
1258.5 135.231
1259.5 112.769
1260.5 148.077
1261.5 183.462
1262.5 156.769
1263.5 122.308
1264.5 184.462
1265.5 145.385
1266.5 123.462
1267.5 167.154
1268.5 225.154
1269.5 168.154
1270.5 194.615
1271.5 147
1272.5 146.385
1273.5 117.462
1274.5 185.462
1275.5 175.077
1276.5 178.923
1277.5 137.385
1278.5 109.692
1279.5 148.923
1280.5 136.231
1281.5 144.462
1282.5 101.769
1283.5 177.769
1284.5 109.615
1285.5 148.615
1286.5 149.308
1287.5 127.923
1288.5 153.692
1289.5 138.846
1290.5 208.385
1291.5 105.385
1292.5 158
1293.5 138.385
1294.5 159.231
1295.5 95.6923
1296.5 163
1297.5 110.231
1298.5 182.308
1299.5 138.692
1300.5 174.308
1301.5 109.846
1302.5 121.385
1303.5 191.154
1304.5 146.231
1305.5 141.692
1306.5 162.615
1307.5 80.6923
1308.5 199.615
1309.5 147.615
1310.5 151.231
1311.5 127.154
1312.5 105.154
1313.5 87
1314.5 188.923
1315.5 148.385
1316.5 213.231
1317.5 170.077
1318.5 100.923
1319.5 104
1320.5 133.923
1321.5 78.5385
1322.5 124.846
1323.5 209.538
1324.5 225.923
1325.5 157.385
1326.5 188.769
1327.5 186.769
1328.5 224.231
1329.5 196.385
1330.5 148.846
1331.5 137.692
1332.5 210.077
1333.5 249.692
1334.5 274.231
1335.5 316.538
1336.5 185.154
1337.5 200.462
1338.5 173.846
1339.5 166.077
1340.5 150.077
1341.5 127.846
1342.5 187.846
1343.5 150.692
1344.5 94.6154
1345.5 182.077
1346.5 121.231
1347.5 175.846
1348.5 199.308
1349.5 94.4615
1350.5 126.615
1351.5 158.385
1352.5 184
1353.5 212.692
1354.5 134.615
1355.5 141.308
1356.5 102.615
1357.5 140.923
1358.5 190.077
1359.5 150
1360.5 171.769
1361.5 169
1362.5 173.154
1363.5 135.846
1364.5 78.4615
1365.5 180.231
1366.5 166.846
1367.5 161.692
1368.5 114.846
1369.5 158.538
1370.5 116.462
1371.5 127.154
1372.5 203.462
1373.5 174.615
1374.5 186.385
1375.5 220.923
1376.5 163.692
1377.5 149.154
1378.5 157.846
1379.5 198.846
1380.5 171.538
1381.5 101.846
1382.5 109.692
1383.5 201.538
1384.5 182.231
1385.5 179.077
1386.5 192.231
1387.5 159.692
1388.5 152.308
1389.5 101.692
1390.5 115
1391.5 156.769
1392.5 131.308
1393.5 234.769
1394.5 224
1395.5 214.385
1396.5 184.231
1397.5 191.077
1398.5 159
1399.5 159.231
1400.5 145.692
1401.5 194.154
1402.5 211.923
1403.5 184
1404.5 184.538
1405.5 200.308
1406.5 162.077
1407.5 188.923
1408.5 148.846
1409.5 225.692
1410.5 147.615
1411.5 183.462
1412.5 236.538
1413.5 156
1414.5 170.538
1415.5 184.769
1416.5 301.692
1417.5 426.462
1418.5 408.538
1419.5 279.077
