# EGG_ProjY_E2746.5(5.5)_B2739.0(2.0)_B2762.5(1.5)
# X axis : Energy (keV) [Y axis]
# Y axis : Counts/1 keV
# N Bins : 12000
# X Min : 0
# X Max : 12000
# X value at the center of the bins
0.5 0
1.5 0
2.5 0
3.5 0
4.5 0
5.5 2.85714
6.5 -7.57143
7.5 -3.85714
8.5 0.142858
9.5 -8.14286
10.5 1.57143
11.5 21.7143
12.5 5.85715
13.5 12
14.5 -45.8571
15.5 35.8571
16.5 88.2857
17.5 22.4286
18.5 75.1429
19.5 91.2857
20.5 24.8572
21.5 197.429
22.5 73.8572
23.5 142
24.5 95.7143
25.5 168
26.5 363.857
27.5 122.857
28.5 263.857
29.5 250.571
30.5 367.714
31.5 318.286
32.5 157.143
33.5 293
34.5 493.714
35.5 358.714
36.5 300.429
37.5 445.429
38.5 633.714
39.5 275
40.5 485.429
41.5 537.143
42.5 357.572
43.5 503.714
44.5 560.572
45.5 339
46.5 308
47.5 413.572
48.5 782.572
49.5 478.143
50.5 358.857
51.5 283.572
52.5 244.429
53.5 278.143
54.5 412.429
55.5 513.286
56.5 537.286
57.5 500.143
58.5 759.286
59.5 593.857
60.5 765.143
61.5 353
62.5 496.143
63.5 436.286
64.5 423.714
65.5 556.572
66.5 486.857
67.5 533
68.5 563.572
69.5 436.143
70.5 673.429
71.5 686.714
72.5 614.857
73.5 612
74.5 726.429
75.5 905.286
76.5 927.143
77.5 982.286
78.5 1012.57
79.5 856.857
80.5 539.429
81.5 463.572
82.5 490
83.5 471.286
84.5 581.143
85.5 386.572
86.5 637.857
87.5 516.286
88.5 665.429
89.5 478.857
90.5 558.143
91.5 346.857
92.5 602.572
93.5 529.714
94.5 424.572
95.5 513.286
96.5 522.857
97.5 308.429
98.5 778.286
99.5 502.572
100.5 607.143
101.5 428.857
102.5 513.572
103.5 389.572
104.5 384.857
105.5 441.572
106.5 368
107.5 350
108.5 457.429
109.5 618
110.5 366.286
111.5 553.714
112.5 517.286
113.5 578.572
114.5 629.143
115.5 610.714
116.5 690.714
117.5 532
118.5 669.286
119.5 668.429
120.5 752.286
121.5 487
122.5 793.572
123.5 428.572
124.5 666.429
125.5 492.857
126.5 524.286
127.5 630.714
128.5 550.286
129.5 677.143
130.5 470.286
131.5 575.429
132.5 554.429
133.5 767.572
134.5 628.572
135.5 404.714
136.5 507.572
137.5 841.572
138.5 702.857
139.5 717.143
140.5 516.572
141.5 729.572
142.5 689.143
143.5 840.572
144.5 679.572
145.5 812.857
146.5 529.143
147.5 740.143
148.5 627
149.5 682.857
150.5 453.572
151.5 695.286
152.5 440.143
153.5 491.857
154.5 536.429
155.5 657.143
156.5 886.143
157.5 696
158.5 509.714
159.5 649.714
160.5 674.857
161.5 881
162.5 731.143
163.5 799.429
164.5 715.286
165.5 1040.29
166.5 643
167.5 897.714
168.5 848.857
169.5 863.714
170.5 718.572
171.5 814.286
172.5 433.286
173.5 901
174.5 594.572
175.5 476.714
176.5 304.714
177.5 482
178.5 556.714
179.5 433.714
180.5 324.572
181.5 499.143
182.5 -21.857
183.5 -42.9998
184.5 -106.571
185.5 255.857
186.5 411.429
187.5 801.714
188.5 857.857
189.5 757.857
190.5 981.286
191.5 1138.71
192.5 1240.14
193.5 1247.86
194.5 1443.29
195.5 1593.29
196.5 1376.86
197.5 1382.86
198.5 1428.14
199.5 1669.86
200.5 1440
201.5 1857.71
202.5 1668.43
203.5 1405.14
204.5 1043.43
205.5 612.143
206.5 77.143
207.5 65.2859
208.5 -120.143
209.5 165.286
210.5 916.857
211.5 1066.57
212.5 921.143
213.5 642.857
214.5 682.572
215.5 826
216.5 394.857
217.5 777.429
218.5 702
219.5 854.286
220.5 709.572
221.5 622.429
222.5 974.143
223.5 840.857
224.5 904.286
225.5 746
226.5 587.572
227.5 623.572
228.5 761.143
229.5 820.572
230.5 646
231.5 801.143
232.5 760.572
233.5 728.429
234.5 784.857
235.5 963.857
236.5 724.714
237.5 877.572
238.5 715.714
239.5 278.143
240.5 321.714
241.5 275.714
242.5 352.286
243.5 508.857
244.5 308.429
245.5 564.143
246.5 632
247.5 754.286
248.5 449.714
249.5 629.429
250.5 891.429
251.5 792.857
252.5 746.286
253.5 1100.57
254.5 605.857
255.5 1014.43
256.5 663.572
257.5 854.429
258.5 860
259.5 1037.71
260.5 1007.71
261.5 922.143
262.5 690.429
263.5 648
264.5 508.286
265.5 586.429
266.5 247.572
267.5 530.143
268.5 404.143
269.5 538.714
270.5 700.143
271.5 675.857
272.5 372.286
273.5 227.857
274.5 168.143
275.5 181.857
276.5 73.4287
277.5 437.286
278.5 493.143
279.5 625.143
280.5 505.714
281.5 816.429
282.5 691.857
283.5 646.429
284.5 748.714
285.5 918
286.5 1007.57
287.5 767.429
288.5 1103.29
289.5 851.286
290.5 1143.14
291.5 1188.43
292.5 957.714
293.5 1022.43
294.5 812.572
295.5 632.286
296.5 370.572
297.5 189.857
298.5 -113.143
299.5 24.4287
300.5 280.286
301.5 422.286
302.5 564.714
303.5 635.714
304.5 689.286
305.5 670.286
306.5 790.714
307.5 756.429
308.5 889.286
309.5 643
310.5 432.429
311.5 439.143
312.5 280.143
313.5 335.714
314.5 504.143
315.5 572.429
316.5 467.286
317.5 681
318.5 402.714
319.5 460.572
320.5 593.857
321.5 522
322.5 551.857
323.5 672.429
324.5 693.572
325.5 649.572
326.5 576.429
327.5 624.143
328.5 535.857
329.5 678.286
330.5 643.429
331.5 653.857
332.5 365.143
333.5 402.143
334.5 403.286
335.5 560.857
336.5 450.714
337.5 423.857
338.5 360.143
339.5 505.572
340.5 638.286
341.5 496.429
342.5 259.429
343.5 526.714
344.5 469
345.5 375.857
346.5 506.429
347.5 453.714
348.5 355.286
349.5 253.714
350.5 399.714
351.5 375.572
352.5 478.429
353.5 593
354.5 587
355.5 622
356.5 470
357.5 426
358.5 714.429
359.5 494
360.5 594.286
361.5 831
362.5 777
363.5 669.143
364.5 734.429
365.5 632.857
366.5 722.143
367.5 864.714
368.5 586.143
369.5 748
370.5 532.286
371.5 524
372.5 448
373.5 352.286
374.5 470.571
375.5 337
376.5 283.857
377.5 429.143
378.5 441.571
379.5 359.857
380.5 384.714
381.5 347.714
382.5 292.286
383.5 412.286
384.5 417.714
385.5 582.143
386.5 509.143
387.5 531.571
388.5 422.429
389.5 336.571
390.5 529.714
391.5 549.714
392.5 424.429
393.5 483.571
394.5 588.714
395.5 386.429
396.5 527.857
397.5 341.143
398.5 506.143
399.5 530.857
400.5 417.857
401.5 663
402.5 807.857
403.5 1240.86
404.5 1124.57
405.5 604.714
406.5 653.286
407.5 377.429
408.5 549.286
409.5 504.143
410.5 432.429
411.5 359.714
412.5 354.857
413.5 452
414.5 311.286
415.5 512.143
416.5 434.286
417.5 434.571
418.5 509.857
419.5 373.286
420.5 350.286
421.5 365.714
422.5 429.571
423.5 641.286
424.5 643.286
425.5 479
426.5 703.857
427.5 478.429
428.5 501.714
429.5 467.857
430.5 528.286
431.5 475.857
432.5 433.429
433.5 445.714
434.5 254.143
435.5 321.429
436.5 370
437.5 317.143
438.5 355.857
439.5 464.571
440.5 410.429
441.5 404.286
442.5 478.286
443.5 368.714
444.5 429.143
445.5 284.429
446.5 503
447.5 566.429
448.5 441.714
449.5 664.143
450.5 569.429
451.5 589.143
452.5 706.286
453.5 548.857
454.5 660.429
455.5 561.429
456.5 724.286
457.5 441.571
458.5 605.286
459.5 460.857
460.5 484.429
461.5 343.571
462.5 259
463.5 296.571
464.5 306.286
465.5 404.857
466.5 302.143
467.5 529.714
468.5 433.571
469.5 356.143
470.5 315.429
471.5 391.714
472.5 327.714
473.5 575.429
474.5 373.286
475.5 373.571
476.5 456.571
477.5 454.857
478.5 347.286
479.5 402.571
480.5 521.143
481.5 400.571
482.5 354.143
483.5 472.429
484.5 530.857
485.5 404.143
486.5 471.286
487.5 621.429
488.5 498.429
489.5 480.571
490.5 721.857
491.5 769.429
492.5 513.714
493.5 598
494.5 511.857
495.5 392.286
496.5 350.571
497.5 557.714
498.5 370.714
499.5 338
500.5 397.714
501.5 292.714
502.5 318.429
503.5 351
504.5 227.286
505.5 237.286
506.5 584.714
507.5 492.714
508.5 787.143
509.5 1646.86
510.5 1755.43
511.5 2661.29
512.5 1869.71
513.5 957.714
514.5 527.571
515.5 408
516.5 386.571
517.5 351.571
518.5 373.714
519.5 444.286
520.5 361.143
521.5 366
522.5 308
523.5 306.571
524.5 350
525.5 265
526.5 196
527.5 418
528.5 249
529.5 343.714
530.5 427.143
531.5 422.286
532.5 215.143
533.5 359.429
534.5 363.429
535.5 365.714
536.5 194.714
537.5 283
538.5 307.857
539.5 258
540.5 248.714
541.5 414.714
542.5 315
543.5 415.286
544.5 362.143
545.5 390.571
546.5 377
547.5 302
548.5 405.429
549.5 347.429
550.5 497.143
551.5 380.143
552.5 452
553.5 422.429
554.5 347.714
555.5 438.714
556.5 295.571
557.5 484.143
558.5 329
559.5 96.5715
560.5 123.429
561.5 318.857
562.5 392.857
563.5 446.143
564.5 360.714
565.5 430.143
566.5 340
567.5 438.143
568.5 257.857
569.5 300.286
570.5 354.571
571.5 327.714
572.5 480.143
573.5 445
574.5 375.857
575.5 349.143
576.5 401.143
577.5 447.429
578.5 368.143
579.5 437
580.5 470.143
581.5 237.286
582.5 374.857
583.5 267.714
584.5 400.286
585.5 238
586.5 294.571
587.5 361.714
588.5 473.143
589.5 311.429
590.5 284.571
591.5 418.857
592.5 518.857
593.5 417
594.5 328.857
595.5 441.857
596.5 418.571
597.5 357
598.5 328.857
599.5 361
600.5 328.429
601.5 338.286
602.5 218.571
603.5 341.286
604.5 371.571
605.5 430.143
606.5 451.429
607.5 255.429
608.5 371.571
609.5 322.429
610.5 514
611.5 332.429
612.5 434.571
613.5 479.571
614.5 348.714
615.5 218.143
616.5 326.286
617.5 426.714
618.5 411.143
619.5 445.857
620.5 314.429
621.5 299.429
622.5 356.714
623.5 371.714
624.5 300
625.5 282.714
626.5 315.429
627.5 417.571
628.5 461.714
629.5 395.857
630.5 371.857
631.5 484.286
632.5 438.286
633.5 316.571
634.5 473
635.5 1258.43
636.5 4680
637.5 7896.29
638.5 4831.43
639.5 1493.86
640.5 545.286
641.5 441.429
642.5 480.571
643.5 248.571
644.5 303.857
645.5 469.429
646.5 285.857
647.5 523.857
648.5 353.714
649.5 219.143
650.5 404.857
651.5 436.857
652.5 403.857
653.5 243.571
654.5 178.143
655.5 293.286
656.5 306.571
657.5 179
658.5 271
659.5 282.857
660.5 187.857
661.5 275.857
662.5 143.143
663.5 259
664.5 210
665.5 172
666.5 370.857
667.5 286
668.5 286
669.5 334.857
670.5 369.429
671.5 327.714
672.5 431.286
673.5 336.571
674.5 452.857
675.5 305
676.5 554.286
677.5 353.429
678.5 489.286
679.5 445
680.5 457.429
681.5 474.286
682.5 364.286
683.5 371.571
684.5 294.143
685.5 150
686.5 98.1429
687.5 141.429
688.5 85.1429
689.5 347.143
690.5 258.429
691.5 330.429
692.5 325.143
693.5 366.571
694.5 270.286
695.5 367.286
696.5 374.286
697.5 414.714
698.5 416.857
699.5 443.571
700.5 544
701.5 373.286
702.5 478
703.5 449.429
704.5 407.286
705.5 435.286
706.5 284
707.5 221.571
708.5 213.143
709.5 169.714
710.5 266.857
711.5 166.571
712.5 316.714
713.5 293.286
714.5 340.857
715.5 268.429
716.5 307.571
717.5 377.286
718.5 436.143
719.5 272.857
720.5 384
721.5 326
722.5 246.143
723.5 282.286
724.5 307.143
725.5 -99
726.5 -62.7142
727.5 147.429
728.5 173.857
729.5 256.286
730.5 243.143
731.5 165.857
732.5 245.857
733.5 343.143
734.5 275.571
735.5 214.143
736.5 361.571
737.5 389.714
738.5 362.857
739.5 352.143
740.5 406.429
741.5 341.429
742.5 359
743.5 479.286
744.5 331.714
745.5 446.857
746.5 330
747.5 364.286
748.5 430.571
749.5 342
750.5 377.857
751.5 242.286
752.5 247.429
753.5 193.286
754.5 262.286
755.5 260.857
756.5 226.714
757.5 406.286
758.5 494.429
759.5 1305.29
760.5 3268.71
761.5 3531.29
762.5 1551.43
763.5 645.714
764.5 378.857
765.5 270.143
766.5 251.429
767.5 341.143
768.5 323.857
769.5 194.571
770.5 318.143
771.5 327.429
772.5 388.857
773.5 268.143
774.5 363
775.5 219
776.5 220.143
777.5 242
778.5 238
779.5 307.857
780.5 328.429
781.5 390
782.5 294.571
783.5 293.143
784.5 301
785.5 378.571
786.5 370.286
787.5 400.143
788.5 224.429
789.5 288.286
790.5 268.571
791.5 261.286
792.5 271.571
793.5 339.286
794.5 275
795.5 305.286
796.5 326
797.5 318
798.5 221
799.5 381.857
800.5 218
801.5 301.571
802.5 251.571
803.5 284.429
804.5 298.857
805.5 56.4286
806.5 -122
807.5 27.5715
808.5 112.286
809.5 301.286
810.5 213.714
811.5 293.286
812.5 281.143
813.5 315.857
814.5 339
815.5 325.429
816.5 424.571
817.5 400.857
818.5 358
819.5 337.857
820.5 359.143
821.5 315.429
822.5 189.714
823.5 314.143
824.5 290
825.5 313
826.5 245.429
827.5 223.714
828.5 306
829.5 349
830.5 312.571
831.5 356.286
832.5 287.857
833.5 374.286
834.5 276.429
835.5 365.429
836.5 280.714
837.5 261.857
838.5 164.714
839.5 470.714
840.5 411.714
841.5 384.857
842.5 412.429
843.5 271.714
844.5 367
845.5 277.714
846.5 338.857
847.5 247.571
848.5 281.571
849.5 305.857
850.5 266
851.5 365.857
852.5 199.571
853.5 240.857
854.5 278.571
855.5 490.857
856.5 396
857.5 263.429
858.5 411.714
859.5 328.857
860.5 273.143
861.5 303.857
862.5 454.571
863.5 360.571
864.5 350.857
865.5 334.286
866.5 425.286
867.5 540.286
868.5 386.571
869.5 462.286
870.5 346.429
871.5 408.571
872.5 390.286
873.5 446
874.5 505.571
875.5 631.286
876.5 2108.29
877.5 4996.57
878.5 5751.57
879.5 2956.14
880.5 897.429
881.5 459.857
882.5 243.286
883.5 348.571
884.5 293.143
885.5 290.571
886.5 351.571
887.5 371.857
888.5 270
889.5 344.143
890.5 412.571
891.5 244.714
892.5 317.714
893.5 297.143
894.5 224.714
895.5 348.286
896.5 407.286
897.5 348.429
898.5 293
899.5 433
900.5 368.143
901.5 491.857
902.5 384.143
903.5 356
904.5 297.143
905.5 366.429
906.5 433
907.5 453
908.5 315.429
909.5 365.286
910.5 358.714
911.5 407.429
912.5 480
913.5 466.143
914.5 579.143
915.5 375.143
916.5 340.857
917.5 430.286
918.5 387.286
919.5 407.429
920.5 398.286
921.5 461.143
922.5 315.429
923.5 403.429
924.5 446.429
925.5 434.714
926.5 310.143
927.5 284.857
928.5 269.571
929.5 285.286
930.5 298.429
931.5 325
932.5 335
933.5 419.571
934.5 284
935.5 336.429
936.5 453.429
937.5 374
938.5 342.857
939.5 334
940.5 366.857
941.5 297.143
942.5 376
943.5 328.571
944.5 363.571
945.5 330.714
946.5 289
947.5 198.571
948.5 224.857
949.5 253.429
950.5 308.571
951.5 271.571
952.5 315.857
953.5 318.429
954.5 323.857
955.5 233.143
956.5 221.571
957.5 266.857
958.5 206.143
959.5 349.714
960.5 244.429
961.5 287.857
962.5 238.857
963.5 228.571
964.5 146
965.5 200.571
966.5 105.571
967.5 137
968.5 253
969.5 209.429
970.5 259.286
971.5 288
972.5 246.143
973.5 269
974.5 264.286
975.5 209.714
976.5 166
977.5 282.857
978.5 225.143
979.5 355.857
980.5 202.857
981.5 150.857
982.5 111.286
983.5 315.714
984.5 115.286
985.5 267.571
986.5 300.571
987.5 264.429
988.5 181.143
989.5 182.571
990.5 196.571
991.5 180.714
992.5 310
993.5 212.286
994.5 294
995.5 140.571
996.5 210.714
997.5 238
998.5 312.286
999.5 908
1000.5 2480.71
1001.5 5023.71
1002.5 4472
1003.5 1723.71
1004.5 565.714
1005.5 161.429
1006.5 65.7143
1007.5 217.286
1008.5 265
1009.5 209.429
1010.5 168
1011.5 214
1012.5 148
1013.5 184.143
1014.5 216.429
1015.5 172.143
1016.5 105.429
1017.5 111.429
1018.5 199.286
1019.5 202.286
1020.5 204.286
1021.5 104.857
1022.5 99
1023.5 260.143
1024.5 242.286
1025.5 347.143
1026.5 215.143
1027.5 167.714
1028.5 161.429
1029.5 174.429
1030.5 126.857
1031.5 110
1032.5 192.429
1033.5 218.571
1034.5 131.286
1035.5 170.857
1036.5 183.286
1037.5 111.429
1038.5 144.857
1039.5 71.8572
1040.5 88.5714
1041.5 95.2857
1042.5 142.571
1043.5 159.714
1044.5 124.714
1045.5 102.571
1046.5 90.4286
1047.5 127.857
1048.5 100.286
1049.5 179.143
1050.5 245
1051.5 106.286
1052.5 116.571
1053.5 229.571
1054.5 121.143
1055.5 130.429
1056.5 226.429
1057.5 183.143
1058.5 86.7143
1059.5 126.714
1060.5 163.429
1061.5 175
1062.5 142.571
1063.5 155.857
1064.5 176.286
1065.5 205.857
1066.5 67.4286
1067.5 58.2857
1068.5 142
1069.5 128
1070.5 159.286
1071.5 139.714
1072.5 -16.7142
1073.5 196.143
1074.5 0.000111341
1075.5 86.8572
1076.5 176.143
1077.5 181
1078.5 88.2857
1079.5 109.857
1080.5 120.857
1081.5 121.286
1082.5 162.571
1083.5 226.429
1084.5 185.429
1085.5 142.143
1086.5 111.857
1087.5 75.4286
1088.5 100.429
1089.5 179.429
1090.5 104.714
1091.5 92.7143
1092.5 116.286
1093.5 101.714
1094.5 125
1095.5 176.857
1096.5 94.7143
1097.5 79.1429
1098.5 132.714
1099.5 103.429
1100.5 127
1101.5 181.286
1102.5 24.5714
1103.5 158.429
1104.5 56.5714
1105.5 136.143
1106.5 133.571
1107.5 205.857
1108.5 175.571
1109.5 140.286
1110.5 61
1111.5 33.5714
1112.5 202.714
1113.5 114.286
1114.5 135.571
1115.5 179.571
1116.5 145.714
1117.5 87.2857
1118.5 112.143
1119.5 106.429
1120.5 202.714
1121.5 115.857
1122.5 349.429
1123.5 1313.71
1124.5 4320.71
1125.5 10190
1126.5 12217.6
1127.5 5644.86
1128.5 1142.57
1129.5 219.286
1130.5 111.429
1131.5 96.4286
1132.5 80.8572
1133.5 69.5714
1134.5 130.714
1135.5 168.429
1136.5 -50.4286
1137.5 10.2857
1138.5 -33.2857
1139.5 89.5714
1140.5 78.8572
1141.5 144.571
1142.5 135.857
1143.5 77.2857
1144.5 106.429
1145.5 138
1146.5 104.429
1147.5 148.857
1148.5 63.7143
1149.5 119.286
1150.5 159.286
1151.5 163.714
1152.5 136.286
1153.5 530.286
1154.5 2342.29
1155.5 7366
1156.5 16336.6
1157.5 15870.3
1158.5 6575.86
1159.5 1316.29
1160.5 370.714
1161.5 150.714
1162.5 133.571
1163.5 150.286
1164.5 42.2857
1165.5 27.2857
1166.5 49.2857
1167.5 52.5714
1168.5 9.14287
1169.5 56.8572
1170.5 60.4286
1171.5 25.7143
1172.5 88.5714
1173.5 62
1174.5 62.7143
1175.5 79.7143
1176.5 93
1177.5 56.5714
1178.5 138.429
1179.5 87.7143
1180.5 47.1429
1181.5 87.7143
1182.5 95.7143
1183.5 26.7143
1184.5 16.7143
1185.5 19.8572
1186.5 3.00002
1187.5 74.4286
1188.5 43
1189.5 32.5714
1190.5 27.8572
1191.5 55
1192.5 82.1429
1193.5 44.7143
1194.5 51.2857
1195.5 46.1429
1196.5 -9.85713
1197.5 44.2857
1198.5 109.286
1199.5 14.4286
1200.5 46.8572
1201.5 32.7143
1202.5 37.7143
1203.5 23.8572
1204.5 79.4286
1205.5 83.4286
1206.5 23.8572
1207.5 95
1208.5 19.5714
1209.5 84.1429
1210.5 52.1429
1211.5 15.5714
1212.5 20.2857
1213.5 32.8572
1214.5 87.2857
1215.5 53.4286
1216.5 25.2857
1217.5 4.7143
1218.5 63.4286
1219.5 61.4286
1220.5 -42.8571
1221.5 -92.8571
1222.5 -216.571
1223.5 -55.5714
1224.5 29.8572
1225.5 119.143
1226.5 65.4286
1227.5 146.286
1228.5 96.2857
1229.5 10.2857
1230.5 44.4286
1231.5 50.1429
1232.5 55.2857
1233.5 83.5714
1234.5 60.1429
1235.5 35.8572
1236.5 34.5714
1237.5 49.1429
1238.5 144.429
1239.5 51.7143
1240.5 43.7143
1241.5 46
1242.5 60.1429
1243.5 100.857
1244.5 147.714
1245.5 56.2857
1246.5 106.143
1247.5 81.2857
1248.5 58.4286
1249.5 63.4286
1250.5 15.1429
1251.5 69.1429
1252.5 105.714
1253.5 45.4286
1254.5 76.7143
1255.5 36.7143
1256.5 4.7143
1257.5 40.1429
1258.5 58
1259.5 67.1429
1260.5 46.2857
1261.5 91.4286
1262.5 126
1263.5 120.857
1264.5 52.8572
1265.5 102.714
1266.5 41.4286
1267.5 71.7143
1268.5 15
1269.5 81
1270.5 93.7143
1271.5 83.1429
1272.5 87.7143
1273.5 61.8572
1274.5 30.4286
1275.5 57.4286
1276.5 91.8572
1277.5 116.571
1278.5 44.5714
1279.5 54.4286
1280.5 57.4286
1281.5 8.7143
1282.5 39.4286
1283.5 7.7143
1284.5 141.714
1285.5 65.4286
1286.5 25.2857
1287.5 46.8572
1288.5 59.2857
1289.5 35.4286
1290.5 72.2857
1291.5 -6.57142
1292.5 -50.2857
1293.5 -26.2857
1294.5 52.8572
1295.5 46.5714
1296.5 53.8572
1297.5 68.5714
1298.5 65.4286
1299.5 48.4286
1300.5 49.7143
1301.5 56.1429
1302.5 55.1429
1303.5 59.4286
1304.5 -13
1305.5 -18.4286
1306.5 36.8572
1307.5 25.8572
1308.5 108.571
1309.5 84.5714
1310.5 -6.99999
1311.5 80.8572
1312.5 45.5714
1313.5 62.4286
1314.5 54.8572
1315.5 49.8572
1316.5 56.2857
1317.5 64
1318.5 38.5714
1319.5 80.7143
1320.5 55
1321.5 95.2857
1322.5 3.00001
1323.5 70.5714
1324.5 63.8572
1325.5 45.8572
1326.5 77.7143
1327.5 79.7143
1328.5 74.2857
1329.5 95.2857
1330.5 83.5714
1331.5 61.1429
1332.5 31.1429
1333.5 99.4286
1334.5 52.2857
1335.5 -1.71428
1336.5 -6.85713
1337.5 26.8572
1338.5 43.1429
1339.5 7.85715
1340.5 61.8572
1341.5 11.4286
1342.5 75.4286
1343.5 20
1344.5 74.2857
1345.5 92.5714
1346.5 18.2857
1347.5 66
1348.5 92.5714
1349.5 -10.4286
1350.5 96.5714
1351.5 59.8572
1352.5 100.143
1353.5 37.2857
1354.5 34.4286
1355.5 -0.142848
1356.5 102.143
1357.5 36.8572
1358.5 66.8572
1359.5 39
1360.5 90.7143
1361.5 17.4286
1362.5 66.7143
1363.5 116
1364.5 20
1365.5 22.7143
1366.5 91.5714
1367.5 120.143
1368.5 142.571
1369.5 133.714
1370.5 44.2857
1371.5 15.5714
1372.5 5.42858
1373.5 -5.42856
1374.5 58.1429
1375.5 86.5714
1376.5 147
1377.5 40.7143
1378.5 30.7143
1379.5 40.1429
1380.5 37.8572
1381.5 104
1382.5 -27.1428
1383.5 41.7143
1384.5 100.714
1385.5 71.5714
1386.5 89.4286
1387.5 58.1429
1388.5 24.8572
1389.5 92.7143
1390.5 105.714
1391.5 70
1392.5 57.4286
1393.5 77.4286
1394.5 89.7143
1395.5 87.8572
1396.5 67.8572
1397.5 87.2857
1398.5 57.8572
1399.5 29.2857
1400.5 60.1429
1401.5 71.1429
1402.5 41.1429
1403.5 58.1429
1404.5 12.8572
1405.5 59.5714
1406.5 -6.71428
1407.5 55.5714
1408.5 9.14287
1409.5 56.8572
1410.5 93.2857
1411.5 2.57144
1412.5 76
1413.5 60.8572
1414.5 14.5714
1415.5 117.143
1416.5 110.286
1417.5 61.4286
1418.5 72.7143
1419.5 138.857
1420.5 180.286
1421.5 120.143
1422.5 78.1429
1423.5 47.8572
1424.5 62.4286
1425.5 47.1429
1426.5 74.2857
1427.5 209.286
1428.5 296.857
1429.5 190.429
1430.5 101.571
1431.5 48.2857
1432.5 28.8572
1433.5 70.4286
1434.5 56.4286
1435.5 58.7143
1436.5 81.5714
1437.5 28
1438.5 103
1439.5 66.7143
1440.5 71
1441.5 1.00136e-05
1442.5 21.1429
1443.5 42.7143
1444.5 48.7143
1445.5 16.7143
