# EGG_ProjY_E2290.0(4.0)_E3059.5(3.5)_B2268.5(1.5)_B2307.0(1.0)_B3047.0(1.0)
# X axis : Energy (keV) [Y axis]
# Y axis : Counts/1 keV
# N Bins : 12000
# X Min : 0
# X Max : 12000
# X value at the center of the bins
0.5 0
1.5 0
2.5 0
3.5 0
4.5 0
5.5 8.85714
6.5 4.57143
7.5 5.85715
8.5 30.5714
9.5 -2.57143
10.5 15.1429
11.5 20
12.5 -35.5714
13.5 -0.142849
14.5 -6.2857
15.5 47
16.5 43.1429
17.5 25.2857
18.5 62.4286
19.5 36.2857
20.5 -14
21.5 -100
22.5 -8.57137
23.5 41.5715
24.5 3.14293
25.5 -198.714
26.5 16.8572
27.5 97.0001
28.5 56.5715
29.5 -194.857
30.5 -133.857
31.5 -66.9999
32.5 -138.714
33.5 -103.428
34.5 -83.857
35.5 -273.428
36.5 -128.857
37.5 8.28587
38.5 -223
39.5 -81.2855
40.5 -288.143
41.5 -311.571
42.5 -177.571
43.5 -290.857
44.5 44.0002
45.5 -208.143
46.5 33.0002
47.5 104.143
48.5 -131.143
49.5 -19.5712
50.5 166
51.5 40.2859
52.5 -149.571
53.5 -28.4284
54.5 -103.857
55.5 18.7145
56.5 175.714
57.5 -154
58.5 15.7145
59.5 40.7145
60.5 -152.428
61.5 -205
62.5 -3.57125
63.5 -44.4284
64.5 -5.85696
65.5 -167.286
66.5 73.7145
67.5 112.286
68.5 -199.714
69.5 181
70.5 -45.7141
71.5 11.2859
72.5 42.7145
73.5 31.7145
74.5 -136.571
75.5 225
76.5 238.857
77.5 284.143
78.5 -70.714
79.5 -81.1426
80.5 36.5717
81.5 -250.286
82.5 100.857
83.5 18.4288
84.5 -77.4284
85.5 -155.286
86.5 -221
87.5 178.572
88.5 -66.4283
89.5 -63.2855
90.5 -404.285
91.5 154.857
92.5 208.429
93.5 192
94.5 -115
95.5 -142.428
96.5 -26.857
97.5 -233
98.5 -190.571
99.5 24.0002
100.5 30.7145
101.5 66.5716
102.5 141.857
103.5 108.714
104.5 -65.9998
105.5 29.4288
106.5 -249.714
107.5 -40.4284
108.5 51.8573
109.5 118.143
110.5 -133.857
111.5 99.0002
112.5 -70.1426
113.5 -49.2855
114.5 -35.2855
115.5 125.715
116.5 107
117.5 142
118.5 -213.857
119.5 -6.71406
120.5 -61.4283
121.5 -123.428
122.5 -256.714
123.5 -42.8569
124.5 56.0002
125.5 -54.4283
126.5 -365.571
127.5 -300
128.5 37.1431
129.5 -184.428
130.5 -79.5712
131.5 -88.5712
132.5 -274.714
133.5 126.857
134.5 -143
135.5 68.1431
136.5 294.857
137.5 32.0003
138.5 236.857
139.5 103.286
140.5 -35.8569
141.5 369.857
142.5 65.286
143.5 485.715
144.5 214.429
145.5 178
146.5 101.143
147.5 -108.428
148.5 -256
149.5 184.572
150.5 -222.571
151.5 93.4288
152.5 68.7145
153.5 -152.428
154.5 -158.143
155.5 -468.714
156.5 -83.714
157.5 -53.8569
158.5 52.8574
159.5 3.85742
160.5 -21.2854
161.5 -386.857
162.5 -137.428
163.5 -308.428
164.5 -496.143
165.5 -490.143
166.5 -1177.43
167.5 -893.428
168.5 -318.428
169.5 -39.8569
170.5 17.0003
171.5 230.143
172.5 263.143
173.5 1113.14
174.5 1906.86
175.5 1131
176.5 96.7146
177.5 150
178.5 288.286
179.5 -39.4283
180.5 -249.714
181.5 -267.428
182.5 -89.2853
183.5 88.4289
184.5 43.0003
185.5 -158.714
186.5 -110.571
187.5 -31.4283
188.5 -249.571
189.5 -495.143
190.5 -179.143
191.5 -297.285
192.5 -31.2854
193.5 -388.428
194.5 -321.571
195.5 -245.571
196.5 -171.714
197.5 -184.857
198.5 -101.571
199.5 -516
200.5 130
201.5 -73.5711
202.5 162.429
203.5 -25.714
204.5 9.42884
205.5 399.572
206.5 125.857
207.5 42.286
208.5 100.429
209.5 -544.143
210.5 -555.285
211.5 -27.1426
212.5 -422.428
213.5 -347.428
214.5 -84.5711
215.5 -480.143
216.5 -124.143
217.5 -194.285
218.5 -313.428
219.5 -150.714
220.5 -360.285
221.5 -28.9997
222.5 -337.143
223.5 21.4288
224.5 436.857
225.5 629.572
226.5 548.715
227.5 635.572
228.5 697.429
229.5 805
230.5 527
231.5 842.429
232.5 542.143
233.5 606.286
234.5 146
235.5 87.1431
236.5 811
237.5 410.143
238.5 511
239.5 268.143
240.5 -85.5712
241.5 268.143
242.5 118.572
243.5 139
244.5 213.143
245.5 -54.4283
246.5 -458.285
247.5 -419.571
248.5 -980.285
249.5 -1264.71
250.5 -1036.43
251.5 -702.571
252.5 -352.285
253.5 -358.714
254.5 -114.143
255.5 -358.571
256.5 -380.143
257.5 -241
258.5 -214.428
259.5 49.4288
260.5 235.429
261.5 7.4288
262.5 -191.714
263.5 74.5717
264.5 -25.1426
265.5 -124.714
266.5 -282.714
267.5 -136.143
268.5 -113.571
269.5 58.2859
270.5 -419.571
271.5 14.5716
272.5 -7.71407
273.5 66.5716
274.5 -209.571
275.5 -239.571
276.5 52.2859
277.5 -157.714
278.5 -234.714
279.5 -246.143
280.5 19.4288
281.5 -159.143
282.5 -189.571
283.5 -151.857
284.5 -167.428
285.5 79.2859
286.5 45.8573
287.5 48.2859
288.5 138.429
289.5 498.429
290.5 321.286
291.5 118.857
292.5 120.286
293.5 446.714
294.5 74.7145
295.5 178.286
296.5 -21.2855
297.5 139.143
298.5 7.0002
299.5 45.8573
300.5 -53.7141
301.5 -45.4284
302.5 5.0002
303.5 70.7145
304.5 37.4288
305.5 -199
306.5 -232.571
307.5 56.5716
308.5 -162.143
309.5 38.8573
310.5 -371.428
311.5 -376.286
312.5 -104.428
313.5 -371
314.5 -53.857
315.5 -139.857
316.5 145.857
317.5 28.2859
318.5 100.429
319.5 302.714
320.5 439.572
321.5 312.286
322.5 291.286
323.5 291.857
324.5 509.286
325.5 605.572
326.5 426.857
327.5 552.286
328.5 491.286
329.5 885.857
330.5 670.286
331.5 136.714
332.5 222.857
333.5 40.0002
334.5 170.143
335.5 -205.571
336.5 -81.1427
337.5 -48.1427
338.5 -185.286
339.5 -301.571
340.5 -47.2855
341.5 -272.714
342.5 -60.857
343.5 -191.428
344.5 -349.143
345.5 -279.714
346.5 -309.428
347.5 -395.857
348.5 -566.571
349.5 -540.286
350.5 -554
351.5 -520.571
352.5 -380.571
353.5 -295.286
354.5 -131.714
355.5 -18.4284
356.5 -107
357.5 -158
358.5 9.00015
359.5 -76.9998
360.5 252.714
361.5 412.857
362.5 267.143
363.5 348.286
364.5 399.429
365.5 480.714
366.5 634.714
367.5 642.714
368.5 215.286
369.5 401.857
370.5 348.286
371.5 135.857
372.5 51.4287
373.5 -98.4284
374.5 -150.428
375.5 -173.714
376.5 -254.857
377.5 -273
378.5 -290.714
379.5 -180
380.5 -218.571
381.5 -319.714
382.5 -192.428
383.5 -408.143
384.5 -313
385.5 -348.428
386.5 -4.42843
387.5 24.0002
388.5 384
389.5 391.429
390.5 300.714
391.5 526.857
392.5 301.572
393.5 189.714
394.5 326.143
395.5 287.714
396.5 317.572
397.5 35.8573
398.5 5.71442
399.5 -255
400.5 -250
401.5 -223.857
402.5 -400
403.5 -471.571
404.5 -862.428
405.5 -272.143
406.5 -79.9999
407.5 75.2858
408.5 81.143
409.5 -103.857
410.5 -145.428
411.5 -257.714
412.5 -473.571
413.5 -689.857
414.5 -740.857
415.5 -823.857
416.5 -307.143
417.5 -456.857
418.5 -320.714
419.5 -219.286
420.5 -234.714
421.5 -308.143
422.5 -165.571
423.5 -10.857
424.5 98.143
425.5 257.714
426.5 322.857
427.5 436.857
428.5 758.714
429.5 937.429
430.5 896.286
431.5 778.572
432.5 934.572
433.5 752.286
434.5 575
435.5 334.714
436.5 457.572
437.5 253.714
438.5 -123.143
439.5 -12.7142
440.5 45.4287
441.5 -350
442.5 -251.571
443.5 -129.428
444.5 -186.714
445.5 -426.714
446.5 -47.857
447.5 -42.2856
448.5 -96.7142
449.5 -475.286
450.5 -210.428
451.5 -315.286
452.5 -530.143
453.5 -496
454.5 -265.857
455.5 -186.714
456.5 136.572
457.5 -12.9999
458.5 -54.7142
459.5 -35.7142
460.5 -46.7142
461.5 9.42869
462.5 145.857
463.5 -155.714
464.5 303
465.5 76.0001
466.5 171.429
467.5 150.714
468.5 78.2858
469.5 183.714
470.5 139.286
471.5 144.429
472.5 4.71441
473.5 195.143
474.5 -146.714
475.5 60.2858
476.5 74.0001
477.5 -63.857
478.5 -40.9999
479.5 95.8573
480.5 -64.7142
481.5 -85.9999
482.5 -252
483.5 -148
484.5 -213
485.5 -89.857
486.5 -43.7142
487.5 -106.714
488.5 151.857
489.5 -141.571
490.5 175.143
491.5 -113.143
492.5 -89.7142
493.5 -54.2856
494.5 119.857
495.5 56.0001
496.5 33.4287
497.5 -112.571
498.5 13.5715
499.5 6.14297
500.5 56.4287
501.5 31.143
502.5 210.714
503.5 -45.2856
504.5 -132
505.5 238.143
506.5 87.7144
507.5 552.715
508.5 705
509.5 1145
510.5 1412.72
511.5 1037.72
512.5 617.572
513.5 297.429
514.5 96.0002
515.5 237
516.5 392.143
517.5 874.714
518.5 2393.71
519.5 4955.43
520.5 3489
521.5 1152.57
522.5 291
523.5 236.429
524.5 116.714
525.5 124.429
526.5 184
527.5 46.0001
528.5 -87.1428
529.5 -16.9999
530.5 71.5715
531.5 -128.143
532.5 124.286
533.5 8.57152
534.5 -143.714
535.5 -141.428
536.5 -66.2856
537.5 -431.286
538.5 -394.428
539.5 -282.714
540.5 -182
541.5 -125
542.5 68.8572
543.5 -37.8571
544.5 -131.286
545.5 -243.571
546.5 81.7144
547.5 -50.2856
548.5 -86.9999
549.5 -54.7142
550.5 82.0001
551.5 139.429
552.5 229
553.5 -45.7142
554.5 219.286
555.5 118.572
556.5 75.2858
557.5 76.7144
558.5 10.8572
559.5 6.85723
560.5 162
561.5 141.286
562.5 182.143
563.5 150.143
564.5 53.1429
565.5 49.0001
566.5 48.8572
567.5 -200
568.5 174
569.5 43.8572
570.5 60.5715
571.5 40.1429
572.5 -167.571
573.5 -54.9999
574.5 -158.714
575.5 -428
576.5 -353
577.5 -210.857
578.5 -326.286
579.5 -92.1428
580.5 -106.571
581.5 -242.714
582.5 -1032
583.5 -1574
584.5 -993.143
585.5 -163.428
586.5 65.5715
587.5 -18.4285
588.5 -11.1428
589.5 -109
590.5 -3.71421
591.5 -72.5713
592.5 -9.28562
593.5 -265.857
594.5 -200.286
595.5 -298.571
596.5 -101.286
597.5 -145.571
598.5 -24.1428
599.5 -77.9999
600.5 -0.142779
601.5 169.857
602.5 1.71436
603.5 137.143
604.5 97.5715
605.5 119.714
606.5 -38.4285
607.5 -93.1428
608.5 -21.9999
609.5 40.5715
610.5 -3.71421
611.5 -160.714
612.5 -243
613.5 24.2858
614.5 65.8572
615.5 -181.714
616.5 118.286
617.5 -39.4285
618.5 77.4286
619.5 -41.8571
620.5 -99.2856
621.5 -118.286
622.5 -124.857
623.5 18.1429
624.5 20.0001
625.5 -105.286
626.5 -60.2856
627.5 44.143
628.5 324.143
629.5 -51.2856
630.5 148.714
631.5 109.857
632.5 81.0001
633.5 87.1429
634.5 -66.7142
635.5 -68.4285
636.5 269
637.5 543.143
638.5 180.143
639.5 -122.143
640.5 -158.571
641.5 -1.71421
642.5 25.8572
643.5 164.714
644.5 -73.9999
645.5 46.0001
646.5 62.1429
647.5 -24.9999
648.5 -59.8571
649.5 28.8572
650.5 -252.286
651.5 58.4287
652.5 -5.85703
653.5 153.572
654.5 -327.143
655.5 -1180.29
656.5 -631.714
657.5 79.1429
658.5 47.4286
659.5 184.429
660.5 224.857
661.5 50.8572
662.5 -40.9999
663.5 -43.2856
664.5 -153.286
665.5 67.0001
666.5 -184.571
667.5 -25.9999
668.5 27.2858
669.5 -27.9999
670.5 -17.2856
671.5 -87.8571
672.5 -128.571
673.5 -66.4285
674.5 -62.4285
675.5 -96.7142
676.5 -325.428
677.5 -208.571
678.5 -205.571
679.5 -209.428
680.5 -4.14278
681.5 -199.571
682.5 74.0001
683.5 -105.286
684.5 -6.28564
685.5 -12.8571
686.5 -17.4285
687.5 -49.5714
688.5 10.0001
689.5 105.714
690.5 169.714
691.5 -96.5714
692.5 -89.7142
693.5 -148.428
694.5 -60.5714
695.5 -77.4285
696.5 -187.857
697.5 -66.7142
698.5 -70.7142
699.5 -180.571
700.5 -57.4285
701.5 122
702.5 -66.2856
703.5 -62.4285
704.5 -69.5714
705.5 -111
706.5 -37.7142
707.5 -156.857
708.5 202.714
709.5 32.4286
710.5 126.286
711.5 -34.1428
712.5 149.571
713.5 -207.286
714.5 64.1429
715.5 105.143
716.5 55.0001
717.5 -57.7142
718.5 -24.2856
719.5 2.00007
720.5 -107.429
721.5 -52.2856
722.5 -7.99993
723.5 3.71436
724.5 -3.85707
725.5 82.2858
726.5 140.572
727.5 -78.4285
728.5 -30.7142
729.5 -109.143
730.5 -155.286
731.5 -58.4285
732.5 -48.5714
733.5 -145.143
734.5 1.85721
735.5 -117.857
736.5 -68.7142
737.5 -15.7142
738.5 -158.286
739.5 145.286
740.5 34.0001
741.5 161.571
742.5 95.5715
743.5 -53.4285
744.5 19.8572
745.5 21.5715
746.5 137.286
747.5 164.429
748.5 79.2858
749.5 45.2858
750.5 10.4286
751.5 44.7144
752.5 -78.8571
753.5 106.429
754.5 -76.4285
755.5 47.8572
756.5 -23.4285
757.5 -12.9999
758.5 135.286
759.5 234.143
760.5 59.8574
761.5 472.857
762.5 109.857
763.5 62.5715
764.5 -38.7142
765.5 -169
766.5 -81.7142
767.5 -104.143
768.5 -53.2856
769.5 -237.286
770.5 -124.286
771.5 45.4286
772.5 -10.5714
773.5 35.1429
774.5 31.4286
775.5 -120.571
776.5 -67.9999
777.5 1.14292
778.5 -14.1428
779.5 -63.4285
780.5 -169.571
781.5 -98.7142
782.5 -86.1428
783.5 -104.429
784.5 41.7144
785.5 491.571
786.5 613.572
787.5 1057
788.5 1310.14
789.5 629.714
790.5 105.714
791.5 -66.7142
792.5 9.71435
793.5 -68.5714
794.5 81.8572
795.5 -104.571
796.5 191.143
797.5 79.7144
798.5 54.2858
799.5 68.4286
800.5 115.571
801.5 -94.9999
802.5 -62.7142
803.5 -158.857
804.5 24.4286
805.5 245.286
806.5 -23.7142
807.5 -16.9999
808.5 -195.571
809.5 -5.4285
810.5 -39.8571
811.5 43.5715
812.5 153
813.5 -47.4285
814.5 87.5715
815.5 67.8572
816.5 148.286
817.5 -55.7142
818.5 157
819.5 19.2858
820.5 11.1429
821.5 -144.286
822.5 47.4286
823.5 80.1429
824.5 69.1429
825.5 15.1429
826.5 -40.9999
827.5 -122.429
828.5 -5.57136
829.5 -90.8571
830.5 -167.714
831.5 -59.1428
832.5 -43.2856
833.5 122
834.5 77.0001
835.5 -73.8571
836.5 17.2858
837.5 -4.4285
838.5 -168.286
839.5 -149.143
840.5 -118.857
841.5 93.0001
842.5 -14.9999
843.5 -163.143
844.5 -13.7142
845.5 53.4286
846.5 98.5715
847.5 2.71436
848.5 30.0001
849.5 89.7144
850.5 63.1429
851.5 -92.1428
852.5 -129
853.5 -72.5714
854.5 16.1429
855.5 -36.1428
856.5 115.857
857.5 -80.9999
858.5 -40.2856
859.5 101.429
860.5 -91.7142
861.5 -18.5714
862.5 103.143
863.5 -60.1428
864.5 -47.1428
865.5 87.5715
866.5 -36.8571
867.5 -18.9999
868.5 42.8573
869.5 -211.428
870.5 -79.4285
871.5 -75.7142
872.5 103.714
873.5 -76.5713
874.5 -90.7142
875.5 3.71437
876.5 264.286
877.5 524.286
878.5 676.857
879.5 402.429
880.5 11.7144
881.5 -1.57135
882.5 43.8572
883.5 24.1429
884.5 -119.571
885.5 30.2858
886.5 -49.4285
887.5 4.42865
888.5 75.4286
889.5 -15.1428
890.5 -57.1428
891.5 40.4286
892.5 -31.7142
893.5 61.2858
894.5 -66.1428
895.5 -124.857
896.5 -30.7142
897.5 -127.286
898.5 -92.8571
899.5 -143.143
900.5 -35.1428
901.5 -3.28563
902.5 -94.2856
903.5 112.286
904.5 -20.1428
905.5 -203.571
906.5 -15.4285
907.5 26.0001
908.5 119.429
909.5 -71.2856
910.5 -30.7142
911.5 127.857
912.5 -16.9999
913.5 36.4287
914.5 40.4287
915.5 81.1429
916.5 -0.857061
917.5 -111.857
918.5 36.5715
919.5 47.5715
920.5 136
921.5 -51.9999
922.5 18.7144
923.5 -56.7142
924.5 -71.5714
925.5 -166.428
926.5 -105.286
927.5 -66.7142
928.5 -44.7142
929.5 -147.143
930.5 -107.714
931.5 -47.9999
932.5 50.4287
933.5 -78.1428
934.5 17.8572
935.5 18.4287
936.5 17.4287
937.5 -22.8571
938.5 -89.2856
939.5 -20.9999
940.5 91.5715
941.5 77.5715
942.5 11.2858
943.5 19.4287
944.5 -72.1428
945.5 130.572
946.5 43.7144
947.5 -35.1428
948.5 103
949.5 -62.8571
950.5 18.4286
951.5 -6.4285
952.5 137.286
953.5 5.28578
954.5 45.0001
955.5 0.571494
956.5 59.8572
957.5 34.5715
958.5 70.2858
959.5 82.5715
960.5 23.2858
961.5 44.1429
962.5 -5.4285
963.5 -26.8571
964.5 36.5715
965.5 -80.2856
966.5 -125.714
967.5 -12.4285
968.5 8.28579
969.5 -1.28565
970.5 101
971.5 -74.7142
972.5 -13.1428
973.5 34.0001
974.5 -118.429
975.5 -95.1428
976.5 -110
977.5 -12.8571
978.5 -100.429
979.5 -63.4285
980.5 -48.7142
981.5 100.429
982.5 20.5715
983.5 -58.8571
984.5 2.28578
985.5 -85.9999
986.5 -121.286
987.5 61.5715
988.5 53.0001
989.5 39.2858
990.5 69.4286
991.5 -58.7142
992.5 -13.7142
993.5 91.0001
994.5 114.714
995.5 -31.5714
996.5 -29.2857
997.5 -31.9999
998.5 -76.9999
999.5 36.5715
1000.5 165.857
1001.5 408.286
1002.5 287.429
1003.5 185.429
1004.5 15.2858
1005.5 112.571
1006.5 -50.8571
1007.5 -121
1008.5 38.5715
1009.5 -33.1428
1010.5 -38.5714
1011.5 65.4286
1012.5 38
1013.5 -54.8571
1014.5 -88.9999
1015.5 -73.1428
1016.5 -359.571
1017.5 -114.143
1018.5 -113
1019.5 -23.8571
1020.5 -4.28566
1021.5 -30.1428
1022.5 -11.7142
1023.5 -63.9999
1024.5 -591.428
1025.5 -150.857
1026.5 11.2858
1027.5 -53.4285
1028.5 -78.4285
1029.5 77.8572
1030.5 -96
1031.5 -71.4285
1032.5 81.1429
1033.5 -81.1428
1034.5 -60
1035.5 51.5715
1036.5 -27.1428
1037.5 -7.14282
1038.5 38
1039.5 -38.8571
1040.5 27.5715
1041.5 -26.2857
1042.5 -56.5714
1043.5 -123.571
1044.5 58.5715
1045.5 -138.143
1046.5 58.5715
1047.5 3.71433
1048.5 5.57147
1049.5 -223.857
1050.5 -147.286
1051.5 -82.8571
1052.5 50.7143
1053.5 -116.857
1054.5 -135.143
1055.5 20.4286
1056.5 70.8572
1057.5 -51.4285
1058.5 34.1429
1059.5 -87.5714
1060.5 59.4286
1061.5 20.8572
1062.5 18
1063.5 50.5715
1064.5 13.5715
1065.5 -73
1066.5 -16.4285
1067.5 -104.286
1068.5 -11.7142
1069.5 21
1070.5 85.4286
1071.5 6.42862
1072.5 191.714
1073.5 -130.857
1074.5 276.429
1075.5 27.4287
1076.5 -95.5714
1077.5 -35.7142
1078.5 -31.2857
1079.5 64.8572
1080.5 -91.5714
1081.5 42.1429
1082.5 -62.1428
1083.5 100.571
1084.5 69.2857
1085.5 -86.2857
1086.5 20
1087.5 44
1088.5 -33
1089.5 -149.429
1090.5 -375.143
1091.5 -265.143
1092.5 -174.714
1093.5 -67
1094.5 148.143
1095.5 -127
1096.5 -177.714
1097.5 28.4286
1098.5 -109.143
1099.5 15.4286
1100.5 38.2858
1101.5 92.5715
1102.5 -92.4285
1103.5 -44.5714
1104.5 13.8572
1105.5 -56.4285
1106.5 -31.8571
1107.5 17.7143
1108.5 106.571
1109.5 -38.4285
1110.5 -12.2857
1111.5 55
1112.5 105.143
1113.5 29.8572
1114.5 -130.857
1115.5 -116.143
1116.5 91.8572
1117.5 -18.4285
1118.5 -117.714
1119.5 -118.286
1120.5 56.2858
1121.5 -140.714
1122.5 82.2858
1123.5 54.0002
1124.5 229.858
1125.5 904.001
1126.5 986.716
1127.5 433.001
1128.5 -21.9998
1129.5 -64.7142
1130.5 119.429
1131.5 -35.4285
1132.5 -95.7143
1133.5 73.8572
1134.5 53.1429
1135.5 57
1136.5 21.1429
1137.5 133.571
1138.5 -94.7142
1139.5 75.7143
1140.5 -29.2857
1141.5 11.4286
1142.5 46.1429
1143.5 14.1429
1144.5 -12
1145.5 -21.7143
1146.5 -1.42854
1147.5 33.4286
1148.5 144
1149.5 91.8572
1150.5 -50.2857
1151.5 -110.429
1152.5 14.4286
1153.5 96.0001
1154.5 322
1155.5 276.144
1156.5 1307.43
1157.5 1472.57
1158.5 -170.427
1159.5 -46.1426
1160.5 -67.8571
1161.5 54.2858
1162.5 66.1429
1163.5 153
1164.5 349.571
1165.5 112
1166.5 108.714
1167.5 70.2857
1168.5 19.5715
1169.5 -17.4285
1170.5 -21.7143
1171.5 -40.8571
1172.5 35.1429
1173.5 -44.2857
1174.5 -9.42855
1175.5 -57.4285
1176.5 45
1177.5 -6.5714
1178.5 35.1429
1179.5 -73.7143
1180.5 -140.857
1181.5 -6.85711
1182.5 -103
1183.5 -23.4285
1184.5 -93.4285
1185.5 -230.857
1186.5 -19.8571
1187.5 -70.8571
1188.5 -60.4285
1189.5 16.4286
1190.5 -22.7143
1191.5 43.8572
1192.5 -55.5714
1193.5 -92
1194.5 -70.2857
1195.5 -22.4285
1196.5 19.8572
1197.5 -39.7143
1198.5 9.85717
1199.5 68.7143
1200.5 -6.85712
1201.5 24.1429
1202.5 3.71431
1203.5 21.8572
1204.5 -56.2857
1205.5 -13
1206.5 52.4286
1207.5 32.4286
1208.5 3.42859
1209.5 8.14288
1210.5 -125.286
1211.5 57.4286
1212.5 -8.99998
1213.5 16.1429
1214.5 24.4286
1215.5 98.7143
1216.5 34.7143
1217.5 -12.8571
1218.5 -48.5714
1219.5 25.2857
1220.5 -42
1221.5 -55.4285
1222.5 -52.2857
1223.5 79.7143
1224.5 -104.714
1225.5 -70.2857
1226.5 44
1227.5 14.5715
1228.5 -48.5714
1229.5 -67
1230.5 49.4286
1231.5 2.71431
1232.5 -127.143
1233.5 -9.28569
1234.5 -13.8571
1235.5 37.8572
1236.5 -37.4285
1237.5 76.5714
1238.5 -63
1239.5 -30.2857
1240.5 17.7143
1241.5 3.4286
1242.5 56.5715
1243.5 2.4286
1244.5 -41.7143
1245.5 6.00002
1246.5 -1.57141
1247.5 -12.1428
1248.5 10.8572
1249.5 39.5715
1250.5 -46.7143
1251.5 79
1252.5 -70.8571
1253.5 -30.7143
1254.5 -6.71426
1255.5 13.5715
1256.5 -61
1257.5 3.28574
1258.5 47.1429
1259.5 25.8572
1260.5 126.571
1261.5 123.286
1262.5 -61
1263.5 61.5715
1264.5 -45.5714
1265.5 42.1429
1266.5 -36
1267.5 2.85717
1268.5 4.14288
1269.5 -20.8571
1270.5 -2.71426
1271.5 -19.4285
1272.5 32.5714
1273.5 -107.286
1274.5 66.2857
1275.5 -14.4285
1276.5 61.5715
1277.5 23.2857
1278.5 66.1429
1279.5 -39.8571
1280.5 -63.7143
1281.5 13.7143
1282.5 -28.1428
1283.5 22
1284.5 27.1429
1285.5 20
1286.5 -98.4285
1287.5 32
1288.5 -18.4286
1289.5 -24.4286
1290.5 35.1429
1291.5 41.5714
1292.5 31.5714
1293.5 -33.7143
1294.5 27.4286
1295.5 58.8572
1296.5 22.5714
1297.5 -2.71426
1298.5 -66.1428
1299.5 3.85716
1300.5 -80.5714
1301.5 16
1302.5 28.1429
1303.5 -48.1428
1304.5 33.1429
1305.5 -113.571
1306.5 44.1429
1307.5 17.8572
1308.5 24.1429
1309.5 -67.8571
1310.5 -59
1311.5 0.57145
1312.5 -30.8571
1313.5 -83.4285
1314.5 -57.8571
1315.5 47.5715
1316.5 -22.2857
1317.5 24
1318.5 -57.4285
1319.5 -42.1428
1320.5 49.1429
1321.5 20.2857
1322.5 6.57145
1323.5 -75
1324.5 44.4286
1325.5 -55.2857
1326.5 18.4286
1327.5 14.2857
1328.5 -27.7143
1329.5 -38.1428
1330.5 52.1429
1331.5 -74.5714
1332.5 14.8572
1333.5 14.7143
1334.5 -58.4285
1335.5 33.2857
1336.5 -81.1428
1337.5 12.7143
1338.5 101.429
1339.5 -42.5714
1340.5 81.1429
1341.5 13.2857
1342.5 -29.7143
1343.5 -44.5714
1344.5 -39.2857
1345.5 34.2857
1346.5 -36.1428
1347.5 -24.8571
1348.5 -61.7143
1349.5 -4.14283
1350.5 23.8572
1351.5 -8.99998
1352.5 -40
1353.5 -34.8571
1354.5 -49.1428
1355.5 5.28573
1356.5 -31.8571
1357.5 -5.85712
1358.5 2.0504e-05
1359.5 35.5714
1360.5 -35.8571
1361.5 45.4286
1362.5 13.4286
1363.5 25.7143
1364.5 36.2857
1365.5 4.57145
1366.5 42.2857
1367.5 -36.1428
1368.5 -16.2857
1369.5 -30.7143
1370.5 11.7143
1371.5 14.2857
1372.5 28
1373.5 3.71431
1374.5 -84.1428
1375.5 -8.71426
1376.5 -13.5714
1377.5 21.5715
1378.5 17.1429
1379.5 75.7143
1380.5 -66
1381.5 -41.2857
1382.5 -19.5714
