# EGG_ProjY_E4392.0(5.0)_B4401.0(2.0)_B4364.5(1.5)
# X axis : Energy (keV) [Y axis]
# Y axis : Counts/1 keV
# N Bins : 12000
# X Min : 0
# X Max : 12000
# X value at the center of the bins
0.5 0
1.5 0
2.5 0
3.5 0
4.5 0
5.5 -2.28572
6.5 -2
7.5 -0.857144
8.5 -20.2857
9.5 16
10.5 9
11.5 30.5714
12.5 20.7143
13.5 24.5714
14.5 22.2857
15.5 38
16.5 50.4286
17.5 29.8571
18.5 34.2857
19.5 21.4286
20.5 53.7143
21.5 75.2857
22.5 49.4286
23.5 91.4286
24.5 190
25.5 13.7143
26.5 232.857
27.5 247.429
28.5 212.143
29.5 139.286
30.5 242.571
31.5 285.571
32.5 316.857
33.5 343.571
34.5 199.571
35.5 286
36.5 168.429
37.5 189
38.5 150.571
39.5 257.286
40.5 266.857
41.5 296.286
42.5 205
43.5 159.429
44.5 331
45.5 374.143
46.5 376.286
47.5 293.571
48.5 292
49.5 319.143
50.5 238.714
51.5 345.429
52.5 311.714
53.5 427.714
54.5 401.429
55.5 329.143
56.5 388.429
57.5 505.571
58.5 445.857
59.5 532.143
60.5 417.429
61.5 382.286
62.5 329.857
63.5 331.857
64.5 327
65.5 401.714
66.5 393.286
67.5 448.429
68.5 395.143
69.5 364
70.5 291.143
71.5 524.143
72.5 392.571
73.5 323.286
74.5 655.857
75.5 682.571
76.5 507.286
77.5 703.428
78.5 486
79.5 357.571
80.5 300.429
81.5 317.143
82.5 347.143
83.5 360.429
84.5 354.571
85.5 372
86.5 460
87.5 324.143
88.5 338.143
89.5 515.857
90.5 301.429
91.5 377.286
92.5 298
93.5 444.429
94.5 363.714
95.5 327
96.5 395.571
97.5 331
98.5 377.429
99.5 300
100.5 330.143
101.5 243.571
102.5 325.714
103.5 392.857
104.5 373.571
105.5 238.714
106.5 387
107.5 378.286
108.5 366.714
109.5 463.286
110.5 391.143
111.5 451.143
112.5 390
113.5 401.143
114.5 375.286
115.5 387.286
116.5 408.571
117.5 328.143
118.5 348
119.5 402
120.5 248.429
121.5 433.571
122.5 384.857
123.5 228
124.5 293.571
125.5 450.571
126.5 350.429
127.5 467.429
128.5 551.857
129.5 421.143
130.5 412.857
131.5 396.714
132.5 490
133.5 454.286
134.5 581.143
135.5 457.857
136.5 362.286
137.5 439.143
138.5 463.571
139.5 575.857
140.5 496.857
141.5 553.857
142.5 415.714
143.5 338.429
144.5 366.714
145.5 589.429
146.5 319.429
147.5 493
148.5 456.714
149.5 444.143
150.5 342.571
151.5 318.286
152.5 451.429
153.5 308.714
154.5 413.143
155.5 366.143
156.5 365.714
157.5 378.857
158.5 506.429
159.5 482.143
160.5 441
161.5 469.714
162.5 445.714
163.5 666.429
164.5 591.857
165.5 504.714
166.5 591.143
167.5 618.857
168.5 766
169.5 743.714
170.5 566.143
171.5 783
172.5 759
173.5 725.714
174.5 1080.71
175.5 776.571
176.5 561.857
177.5 683.429
178.5 526.714
179.5 469.857
180.5 579.286
181.5 457.571
182.5 553
183.5 565.571
184.5 580.571
185.5 601.571
186.5 602.714
187.5 511.571
188.5 492.143
189.5 605
190.5 544.571
191.5 531.286
192.5 385.286
193.5 402
194.5 368.286
195.5 621.286
196.5 452.714
197.5 543
198.5 559
199.5 412.429
200.5 471
201.5 473.857
202.5 481.714
203.5 628.143
204.5 493.857
205.5 475.143
206.5 664.571
207.5 541
208.5 472.714
209.5 592.143
210.5 577
211.5 730.286
212.5 543.286
213.5 676.429
214.5 423.143
215.5 560
216.5 580.143
217.5 637.286
218.5 521.714
219.5 535.429
220.5 480
221.5 323.571
222.5 556.857
223.5 404.286
224.5 596.714
225.5 684.857
226.5 617.571
227.5 785.286
228.5 670
229.5 729.571
230.5 743.429
231.5 684
232.5 713.571
233.5 710.286
234.5 613.429
235.5 837.286
236.5 625.571
237.5 534.714
238.5 534.857
239.5 496.286
240.5 497.857
241.5 600.714
242.5 664.857
243.5 567.429
244.5 486.571
245.5 534.286
246.5 495.429
247.5 222.143
248.5 158.286
249.5 204
250.5 198.143
251.5 290
252.5 430.286
253.5 481.571
254.5 656.429
255.5 675.571
256.5 693.714
257.5 817.143
258.5 678.429
259.5 511.286
260.5 429.857
261.5 635.143
262.5 605.857
263.5 630.286
264.5 539.429
265.5 490.714
266.5 525.143
267.5 407.286
268.5 403.429
269.5 486
270.5 324.857
271.5 516.143
272.5 539.286
273.5 350.286
274.5 458.714
275.5 416.429
276.5 289.857
277.5 380.143
278.5 356.857
279.5 425.714
280.5 389
281.5 307
282.5 117.286
283.5 245.714
284.5 215.714
285.5 274.714
286.5 326.571
287.5 426.857
288.5 533
289.5 434.429
290.5 596.857
291.5 460.714
292.5 599.857
293.5 497.857
294.5 440
295.5 580.571
296.5 553
297.5 620.714
298.5 390.429
299.5 542.143
300.5 545.286
301.5 378.429
302.5 433
303.5 475.571
304.5 523.429
305.5 381.857
306.5 428.857
307.5 404.143
308.5 428.571
309.5 214.714
310.5 380.857
311.5 359.286
312.5 331
313.5 436
314.5 497
315.5 363
316.5 512.143
317.5 323.286
318.5 330.714
319.5 463.286
320.5 492.857
321.5 464
322.5 410.571
323.5 480.429
324.5 460.857
325.5 370.857
326.5 410.714
327.5 371.429
328.5 440.571
329.5 286.286
330.5 368.857
331.5 426.429
332.5 391.857
333.5 402.286
334.5 415.571
335.5 453
336.5 502
337.5 382.429
338.5 402.143
339.5 429.143
340.5 358.143
341.5 437.286
342.5 414
343.5 320.286
344.5 323.429
345.5 307.286
346.5 193.571
347.5 232.714
348.5 296.857
349.5 303.714
350.5 235.857
351.5 421
352.5 413.143
353.5 425.143
354.5 445
355.5 413.286
356.5 520.286
357.5 502.571
358.5 436.286
359.5 399.571
360.5 373.143
361.5 374.429
362.5 417.857
363.5 348.857
364.5 353.429
365.5 326.429
366.5 260.714
367.5 325.143
368.5 276
369.5 414.429
370.5 386.714
371.5 267.429
372.5 332.286
373.5 264.857
374.5 354
375.5 340.143
376.5 372.714
377.5 330.429
378.5 361.143
379.5 396.857
380.5 304.143
381.5 264.714
382.5 259
383.5 361.429
384.5 214.286
385.5 302.571
386.5 309.857
387.5 350.286
388.5 259.143
389.5 296.143
390.5 295.857
391.5 256.714
392.5 278.286
393.5 216
394.5 361.571
395.5 408.143
396.5 283.714
397.5 302.429
398.5 254.286
399.5 262.143
400.5 347.286
401.5 217.143
402.5 230
403.5 275
404.5 341.857
405.5 277.857
406.5 196.857
407.5 153.714
408.5 368.286
409.5 321.857
410.5 267.857
411.5 212.143
412.5 298
413.5 342.571
414.5 454.429
415.5 355.143
416.5 328.429
417.5 297
418.5 288.857
419.5 346.714
420.5 393.571
421.5 304.286
422.5 399.429
423.5 400.714
424.5 338.571
425.5 315.429
426.5 382
427.5 251.857
428.5 251.714
429.5 236.714
430.5 260.571
431.5 211.857
432.5 131.857
433.5 227.143
434.5 256.429
435.5 306.286
436.5 128
437.5 208.714
438.5 165.857
439.5 187.143
440.5 145
441.5 171.429
442.5 207.143
443.5 216
444.5 201.429
445.5 222
446.5 351.714
447.5 358
448.5 405.714
449.5 349.429
450.5 311.571
451.5 466.857
452.5 308.571
453.5 357.143
454.5 250.429
455.5 310.429
456.5 317.857
457.5 312.286
458.5 331.143
459.5 357.429
460.5 283
461.5 299.714
462.5 192.143
463.5 176.857
464.5 257.714
465.5 355
466.5 322.714
467.5 209.571
468.5 230.429
469.5 260.429
470.5 337.143
471.5 239
472.5 281.429
473.5 218.857
474.5 231.571
475.5 246.857
476.5 225.714
477.5 165.429
478.5 196.143
479.5 260.286
480.5 125.571
481.5 143.429
482.5 189.857
483.5 62.7143
484.5 100.429
485.5 230.857
486.5 216.857
487.5 291.286
488.5 350.857
489.5 425.429
490.5 415.571
491.5 461.286
492.5 456
493.5 382
494.5 494.286
495.5 399.286
496.5 377.143
497.5 335.571
498.5 340.143
499.5 324.286
500.5 231.429
501.5 255
502.5 184.857
503.5 248
504.5 157.286
505.5 378.286
506.5 689.286
507.5 1160.57
508.5 1906.57
509.5 3040.71
510.5 3552.29
511.5 3300.86
512.5 1873.29
513.5 854.429
514.5 428.571
515.5 346.286
516.5 182
517.5 92
518.5 126.429
519.5 125.286
520.5 290
521.5 238.429
522.5 225.857
523.5 153.286
524.5 248.286
525.5 351.714
526.5 197.714
527.5 235
528.5 295
529.5 240.857
530.5 272.571
531.5 289
532.5 197.286
533.5 153.429
534.5 46.7143
535.5 197.571
536.5 180.857
537.5 200
538.5 141.714
539.5 121
540.5 66.5714
541.5 99.8571
542.5 79.2857
543.5 106.714
544.5 116.143
545.5 125.857
546.5 211.429
547.5 300.429
548.5 223.143
549.5 384.714
550.5 242.857
551.5 243
552.5 210
553.5 332
554.5 278.286
555.5 226.571
556.5 228.286
557.5 202.714
558.5 157.429
559.5 192.857
560.5 214.857
561.5 212.714
562.5 143.571
563.5 150
564.5 192.571
565.5 168.286
566.5 187
567.5 140.857
568.5 86.2857
569.5 145.286
570.5 201.286
571.5 156.571
572.5 170.143
573.5 170.143
574.5 143.714
575.5 173.571
576.5 150.143
577.5 157.857
578.5 80.7143
579.5 96.8571
580.5 102.429
581.5 84.8571
582.5 171.286
583.5 192.143
584.5 228.143
585.5 271
586.5 266.286
587.5 253.286
588.5 257.857
589.5 229.429
590.5 308.429
591.5 325.857
592.5 270.571
593.5 236.571
594.5 288
595.5 260.714
596.5 289.429
597.5 251.571
598.5 204.857
599.5 129.714
600.5 171.714
601.5 142.571
602.5 122.571
603.5 148
604.5 141.571
605.5 221.286
606.5 192.857
607.5 133.286
608.5 232.714
609.5 157.429
610.5 159.714
611.5 257.143
612.5 132.714
613.5 156
614.5 169.571
615.5 251.286
616.5 75.2857
617.5 219
618.5 150.143
619.5 227.143
620.5 122.143
621.5 182.429
622.5 76.5714
623.5 144.714
624.5 148.857
625.5 192.857
626.5 131.714
627.5 65.7143
628.5 118.429
629.5 52.8571
630.5 184.571
631.5 138.857
632.5 190.857
633.5 207.714
634.5 271.429
635.5 216.857
636.5 559
637.5 768.714
638.5 551.143
639.5 295
640.5 188.143
641.5 257.286
642.5 251.286
643.5 323.143
644.5 206.286
645.5 239.286
646.5 166
647.5 230.143
648.5 188.714
649.5 256.143
650.5 267
651.5 190
652.5 290
653.5 215.857
654.5 231.143
655.5 208.571
656.5 251.571
657.5 95.2857
658.5 179
659.5 93
660.5 179.286
661.5 135.143
662.5 123.143
663.5 238.714
664.5 204.857
665.5 202.429
666.5 129.143
667.5 205.857
668.5 53.1428
669.5 204.429
670.5 247.143
671.5 140.286
672.5 200.429
673.5 177.286
674.5 132
675.5 200
676.5 157.857
677.5 220
678.5 258
679.5 202.286
680.5 182.143
681.5 225.571
682.5 160
683.5 167.286
684.5 171
685.5 85
686.5 175
687.5 73.4286
688.5 177
689.5 210.714
690.5 132.429
691.5 266.571
692.5 134.857
693.5 258.714
694.5 178
695.5 238.429
696.5 274.286
697.5 187.429
698.5 182.714
699.5 177.571
700.5 209
701.5 281.286
702.5 196
703.5 210.714
704.5 151.857
705.5 188
706.5 265
707.5 308.143
708.5 251.429
709.5 224.714
710.5 194.571
711.5 200.571
712.5 181.571
713.5 260
714.5 171.714
715.5 151.429
716.5 172.143
717.5 154.714
718.5 227.286
719.5 163.286
720.5 161.429
721.5 169.714
722.5 239.143
723.5 224.571
724.5 227
725.5 96.8571
726.5 162.571
727.5 142.714
728.5 139.571
729.5 216.857
730.5 285
731.5 178.571
732.5 180
733.5 200.143
734.5 234.857
735.5 210.857
736.5 241.857
737.5 137.286
738.5 191.286
739.5 221.429
740.5 243
741.5 207
742.5 180.714
743.5 105
744.5 160.429
745.5 200.286
746.5 234
747.5 207.857
748.5 190.429
749.5 132.143
750.5 243.857
751.5 130.429
752.5 201.143
753.5 182.857
754.5 148.857
755.5 226.286
756.5 157.714
757.5 208
758.5 190
759.5 303.571
760.5 484.857
761.5 592.857
762.5 451.857
763.5 241.714
764.5 249.714
765.5 203.857
766.5 240.286
767.5 209.714
768.5 273
769.5 260
770.5 188.143
771.5 213.571
772.5 196
773.5 168
774.5 213
775.5 229.143
776.5 201.571
777.5 185
778.5 188.714
779.5 199.857
780.5 207.143
781.5 207.714
782.5 264.857
783.5 220.429
784.5 185.714
785.5 163.286
786.5 200.286
787.5 230.286
788.5 189.571
789.5 122.857
790.5 147.571
791.5 199.714
792.5 162.286
793.5 180
794.5 158.571
795.5 165.571
796.5 251.429
797.5 157.571
798.5 220
799.5 199.571
800.5 185.857
801.5 205.714
802.5 190.857
803.5 200.714
804.5 197.714
805.5 150
806.5 253.286
807.5 255.429
808.5 158.571
809.5 160
810.5 171.429
811.5 137
812.5 229.143
813.5 282.429
814.5 245.286
815.5 184.429
816.5 228.571
817.5 163.714
818.5 163.857
819.5 181.143
820.5 193.714
821.5 206.571
822.5 237.286
823.5 251.286
824.5 157.143
825.5 201.857
826.5 187.714
827.5 198.714
828.5 144.143
829.5 236
830.5 173.571
831.5 193.143
832.5 170.143
833.5 203.143
834.5 160.429
835.5 143.143
836.5 222.286
837.5 252.714
838.5 146
839.5 225
840.5 198.571
841.5 204.571
842.5 210.571
843.5 226.714
844.5 264.571
845.5 225
846.5 262.143
847.5 223.857
848.5 177.429
849.5 238.286
850.5 217
851.5 190.571
852.5 210.857
853.5 213.714
854.5 143.714
855.5 126.571
856.5 158.857
857.5 181.571
858.5 129.714
859.5 209.714
860.5 209.429
861.5 146.429
862.5 253.143
863.5 171.714
864.5 281.143
865.5 276.571
866.5 182.429
867.5 238.143
868.5 156.714
869.5 141.143
870.5 185
871.5 323.571
872.5 200.571
873.5 199.714
874.5 247.714
875.5 259.857
876.5 409.714
877.5 584.571
878.5 675.857
879.5 435
880.5 250.286
881.5 216.857
882.5 275.286
883.5 292.429
884.5 335.857
885.5 261.286
886.5 206.714
887.5 271.143
888.5 203.429
889.5 244.857
890.5 286.429
891.5 309.286
892.5 225.429
893.5 304.429
894.5 320
895.5 261
896.5 266.429
897.5 264.429
898.5 194
899.5 294.143
900.5 277.429
901.5 234.286
902.5 280.143
903.5 304
904.5 294.571
905.5 283
906.5 260.571
907.5 226.714
908.5 267.857
909.5 316.571
910.5 173
911.5 291.714
912.5 240.857
913.5 237.714
914.5 358.571
915.5 282.286
916.5 222.857
917.5 305
918.5 268
919.5 263.571
920.5 306.857
921.5 259.714
922.5 247.143
923.5 339.143
924.5 260.143
925.5 312.429
926.5 253
927.5 241.286
928.5 294.429
929.5 355.143
930.5 336.429
931.5 312.143
932.5 246.714
933.5 285.429
934.5 302.857
935.5 336.857
936.5 376
937.5 264
938.5 319.571
939.5 359
940.5 286.143
941.5 325.714
942.5 329.143
943.5 264.571
944.5 264.143
945.5 303.857
946.5 263.143
947.5 303.429
948.5 334.429
949.5 127.571
950.5 252
951.5 276.429
952.5 236.429
953.5 191.571
954.5 282.429
955.5 228.857
956.5 232.429
957.5 289.429
958.5 274.857
959.5 227.571
960.5 220.143
961.5 245.571
962.5 269
963.5 234.143
964.5 228.571
965.5 252.857
966.5 313.286
967.5 282.571
968.5 181.714
969.5 134.429
970.5 188.571
971.5 161.143
972.5 141.571
973.5 193.286
974.5 165.429
975.5 218
976.5 207.286
977.5 183.429
978.5 200.571
979.5 234.143
980.5 142.429
981.5 128.286
982.5 194.143
983.5 175.571
984.5 218.429
985.5 137.714
986.5 115.286
987.5 115
988.5 121.429
989.5 157.143
990.5 101.286
991.5 80.8571
992.5 208.571
993.5 188
994.5 143.714
995.5 209.143
996.5 139.714
997.5 177.714
998.5 178.429
999.5 234.857
1000.5 302.429
1001.5 486.571
1002.5 474
1003.5 322.571
1004.5 208.857
1005.5 282.143
1006.5 159.143
1007.5 173.714
1008.5 210.286
1009.5 202.429
1010.5 111
1011.5 207.857
1012.5 92.8571
1013.5 127.571
1014.5 102.429
1015.5 167.571
1016.5 118
1017.5 187.143
1018.5 196.429
1019.5 139.571
1020.5 157.143
1021.5 135
1022.5 119.714
1023.5 163.714
1024.5 200.429
1025.5 196.714
1026.5 129.429
1027.5 177.143
1028.5 129.429
1029.5 104.571
1030.5 109
1031.5 109.857
1032.5 114.429
1033.5 76.7143
1034.5 146.429
1035.5 136.286
1036.5 120.143
1037.5 114.143
1038.5 130.286
1039.5 129.857
1040.5 170.571
1041.5 83.1428
1042.5 101.143
1043.5 108.857
1044.5 150.571
1045.5 146.286
1046.5 149.143
1047.5 147.857
1048.5 63.1428
1049.5 69.8571
1050.5 139.143
1051.5 44.1428
1052.5 58.2857
1053.5 111.857
1054.5 40.7143
1055.5 106.714
1056.5 78.4286
1057.5 132.143
1058.5 137.286
1059.5 66.5714
1060.5 82.5714
1061.5 109.714
1062.5 101.857
1063.5 143
1064.5 86.2857
1065.5 119.571
1066.5 110.286
1067.5 36.5714
1068.5 118
1069.5 98.7143
1070.5 150
1071.5 137.143
1072.5 179.571
1073.5 216.429
1074.5 305
1075.5 157.857
1076.5 128.857
1077.5 98.1428
1078.5 95
1079.5 41.4286
1080.5 90.5714
1081.5 108.857
1082.5 85.5714
1083.5 144.143
1084.5 110.143
1085.5 74.8571
1086.5 112.143
1087.5 91.5714
1088.5 25.7143
1089.5 123.143
1090.5 89.8571
1091.5 99.7143
1092.5 81.4286
1093.5 159.143
1094.5 112.714
1095.5 71.4286
1096.5 73.2857
1097.5 121.857
1098.5 40.1428
1099.5 135
1100.5 144.429
1101.5 112.714
1102.5 97
1103.5 156
1104.5 109.571
1105.5 129.143
1106.5 73.4286
1107.5 88.5714
1108.5 40
1109.5 114.429
1110.5 83.4286
1111.5 114.571
1112.5 79.7143
1113.5 65.2857
1114.5 75
1115.5 52.4286
1116.5 104.571
1117.5 78
1118.5 126.429
1119.5 116.429
1120.5 112.429
1121.5 101.286
1122.5 377.571
1123.5 654.286
1124.5 2401.71
1125.5 5410.14
1126.5 6255.57
1127.5 2863.14
1128.5 652.143
1129.5 233.857
1130.5 63.5714
1131.5 45.7143
1132.5 78.7143
1133.5 82
1134.5 9.71428
1135.5 160.857
1136.5 80.8571
1137.5 89.7143
1138.5 108.286
1139.5 99.2857
1140.5 36.7143
1141.5 88.5714
1142.5 101.286
1143.5 125.286
1144.5 81.5714
1145.5 35.7143
1146.5 37
1147.5 120
1148.5 98.5714
1149.5 89
1150.5 101.429
1151.5 57.8571
1152.5 244.429
1153.5 620
1154.5 1974.43
1155.5 7343.86
1156.5 15782
1157.5 16211.4
1158.5 6720.71
1159.5 1373
1160.5 359
1161.5 129.714
1162.5 80.8571
1163.5 17
1164.5 46.8571
1165.5 31.8571
1166.5 54.8571
1167.5 20
1168.5 64.7143
1169.5 32.1429
1170.5 47.2857
1171.5 25.5714
1172.5 27.4286
1173.5 43
1174.5 7.99999
1175.5 33.4286
1176.5 24.1429
1177.5 20.4286
1178.5 -5.57143
1179.5 33.2857
1180.5 40.5714
1181.5 96.4286
1182.5 3.99999
1183.5 35.2857
1184.5 -1.28572
1185.5 34.1429
1186.5 48.1429
1187.5 26
1188.5 48
1189.5 4.42857
1190.5 34.7143
1191.5 34
1192.5 32.8571
1193.5 38.8571
1194.5 52.1429
1195.5 31.1429
1196.5 43.7143
1197.5 31.5714
1198.5 34
1199.5 69.2857
1200.5 69.5714
1201.5 -0.714291
1202.5 33
1203.5 80.1429
1204.5 58.2857
1205.5 29.1429
1206.5 53.5714
1207.5 -1.00001
1208.5 9.99999
1209.5 32.8571
1210.5 14.5714
1211.5 45.5714
1212.5 20
1213.5 41.1429
1214.5 48.4286
1215.5 -0.28572
1216.5 17.1429
1217.5 13
1218.5 16.4286
1219.5 118.429
1220.5 73.8571
1221.5 24.7143
1222.5 -12
1223.5 30
1224.5 -30.4286
1225.5 44.1429
1226.5 16.4286
1227.5 89.7143
1228.5 42.1429
1229.5 7.99999
1230.5 34.1429
1231.5 39.8571
1232.5 20.5714
1233.5 13.5714
1234.5 88.4286
1235.5 69
1236.5 11.1429
1237.5 62.5714
1238.5 88.4286
1239.5 31.2857
1240.5 -3.28572
1241.5 36.8571
1242.5 84.2857
1243.5 27.1429
1244.5 48.4286
1245.5 75
1246.5 107.857
1247.5 63.1429
1248.5 16.2857
1249.5 16
1250.5 51.5714
1251.5 67.5714
1252.5 8.28571
1253.5 32.7143
1254.5 55
1255.5 12.2857
1256.5 32.7143
1257.5 80.4286
1258.5 66.7143
1259.5 2.28571
1260.5 57.7143
1261.5 41.1429
1262.5 53.7143
1263.5 54.4286
1264.5 26.5714
1265.5 68.1429
1266.5 75.5714
1267.5 34.4286
1268.5 71.5714
1269.5 73.7143
1270.5 43.1429
1271.5 34.7143
1272.5 33.2857
1273.5 36.1429
1274.5 57.2857
1275.5 45.5714
1276.5 61
1277.5 65.4286
1278.5 60.8571
1279.5 46.8571
1280.5 28.8571
1281.5 30.5714
1282.5 78
1283.5 42.4286
1284.5 63.4286
1285.5 41.7143
1286.5 0.28571
1287.5 27
1288.5 -32.1429
1289.5 42.7143
1290.5 12
1291.5 9
1292.5 17.7143
1293.5 32.1429
1294.5 55.5714
1295.5 42.7143
1296.5 35.8571
1297.5 17.8571
1298.5 76.2857
1299.5 32
1300.5 47.5714
1301.5 51.8571
1302.5 46.4286
1303.5 -7.00001
1304.5 23.1429
1305.5 16.8571
1306.5 26.1429
1307.5 95.1429
1308.5 43.4286
1309.5 -14
1310.5 58.8571
1311.5 15
1312.5 41.1429
1313.5 23.4286
1314.5 30.7143
1315.5 51.4286
1316.5 79.5714
1317.5 6.57142
1318.5 40.1429
1319.5 16.5714
1320.5 27
1321.5 49.1429
1322.5 48.4286
1323.5 22.7143
1324.5 27
1325.5 37.8571
1326.5 19.8571
1327.5 -4.85715
1328.5 7.28571
1329.5 0.428567
1330.5 28.7143
1331.5 -24.7143
1332.5 55.8571
1333.5 86.4286
1334.5 61.4286
1335.5 24.4286
1336.5 40.4286
1337.5 -5.71429
1338.5 23
1339.5 56.7143
1340.5 6
1341.5 9.14285
1342.5 -7.57143
1343.5 39.2857
1344.5 28.8571
1345.5 30.7143
1346.5 54.7143
1347.5 31
1348.5 56.5714
1349.5 39
1350.5 27.2857
1351.5 17.1429
1352.5 12
1353.5 54.1429
1354.5 20.8571
1355.5 20.5714
1356.5 22.2857
1357.5 36.5714
1358.5 23.4286
1359.5 24.2857
1360.5 17.2857
1361.5 28
1362.5 57.5714
1363.5 2.42857
1364.5 70.4286
1365.5 19.2857
1366.5 -5.71429
1367.5 6
1368.5 68.4286
1369.5 31.4286
1370.5 -12.2857
1371.5 52.4286
1372.5 7.42857
1373.5 50.1429
1374.5 46.7143
1375.5 46
1376.5 23.7143
1377.5 33.1429
1378.5 50.4286
1379.5 27.4286
1380.5 62.8571
1381.5 25.7143
1382.5 75.5714
1383.5 46.2857
1384.5 51.8571
1385.5 7.14285
1386.5 42.7143
1387.5 17.1428
1388.5 45
1389.5 4.57142
1390.5 -1.71429
1391.5 44.5714
1392.5 10.2857
1393.5 32.8571
1394.5 51.5714
1395.5 18.1429
1396.5 13.7143
1397.5 29.5714
1398.5 39.7143
1399.5 23
1400.5 38.4286
1401.5 16.5714
1402.5 11.2857
1403.5 55.4286
1404.5 13.8571
1405.5 -5.28572
1406.5 25
1407.5 40.2857
1408.5 45.5714
1409.5 -5.28572
1410.5 44.2857
1411.5 49
1412.5 28.2857
1413.5 84.2857
1414.5 51.8571
1415.5 62.8571
1416.5 49.7143
1417.5 31.4286
1418.5 48.2857
1419.5 66.7143
1420.5 39.8571
1421.5 31.2857
1422.5 30.7143
1423.5 -27.5714
1424.5 20.7143
1425.5 51
1426.5 38.1429
1427.5 27.8571
1428.5 99
1429.5 43.7143
1430.5 33.2857
1431.5 20
1432.5 13
1433.5 -15.5714
1434.5 76
1435.5 32.5714
1436.5 -11.4286
1437.5 63
1438.5 20
1439.5 34
1440.5 5.42857
1441.5 14.8571
1442.5 -0.857148
1443.5 60.5714
1444.5 29.1429
1445.5 67.8571
1446.5 48.7143
1447.5 34.5714
1448.5 58.1429
1449.5 26.2857
1450.5 56.8571
1451.5 22
1452.5 38.1429
1453.5 40.1429
1454.5 18.5714
1455.5 54.1429
1456.5 18.1429
1457.5 38.8571
1458.5 18.8571
1459.5 30.7143
1460.5 54.8571
1461.5 33.1429
