# EGG_ProjY_E3661.0(6.0)_B3678.5(1.5)_B3690.0(2.0)
# X axis : Energy (keV) [Y axis]
# Y axis : Counts/1 keV
# N Bins : 12000
# X Min : 0
# X Max : 12000
# X value at the center of the bins
0.5 0
1.5 0
2.5 0
3.5 0
4.5 0
5.5 -4.71429
6.5 11
7.5 16.2857
8.5 -11
9.5 0.999999
10.5 19.2857
11.5 30.1429
12.5 54.2857
13.5 -1.14286
14.5 12.5714
15.5 70.1429
16.5 36.1429
17.5 93.7143
18.5 50.7143
19.5 35.2857
20.5 17.2857
21.5 99
22.5 56.4286
23.5 92
24.5 48
25.5 104.714
26.5 137.714
27.5 204.429
28.5 86.7143
29.5 251.571
30.5 148.429
31.5 73.5714
32.5 134
33.5 369
34.5 220
35.5 171.714
36.5 109.714
37.5 243.714
38.5 206.143
39.5 185.143
40.5 212.571
41.5 384.429
42.5 407.143
43.5 206.429
44.5 343.429
45.5 230.143
46.5 276.857
47.5 179.714
48.5 237.857
49.5 185.143
50.5 308
51.5 182.429
52.5 123
53.5 181
54.5 197.571
55.5 248.143
56.5 394.714
57.5 360.143
58.5 328
59.5 403.857
60.5 361.857
61.5 290.857
62.5 187.143
63.5 351.286
64.5 290.714
65.5 277.429
66.5 328.714
67.5 358.429
68.5 190.857
69.5 253.714
70.5 210.714
71.5 179
72.5 237.857
73.5 298.429
74.5 276
75.5 580.143
76.5 458.857
77.5 454.286
78.5 384.571
79.5 249.286
80.5 267.143
81.5 227.286
82.5 268.571
83.5 360.857
84.5 145.429
85.5 292.714
86.5 491.571
87.5 525.571
88.5 323.714
89.5 522.429
90.5 591.857
91.5 316.286
92.5 169.571
93.5 98.4285
94.5 387.714
95.5 307
96.5 255.857
97.5 342.714
98.5 197.286
99.5 283.571
100.5 353.571
101.5 466.857
102.5 319.714
103.5 342.286
104.5 265.857
105.5 196.571
106.5 344.429
107.5 338.143
108.5 181.286
109.5 361.857
110.5 345.571
111.5 281.429
112.5 206.286
113.5 378.714
114.5 477.857
115.5 461.429
116.5 204.143
117.5 297.286
118.5 198
119.5 305.286
120.5 311.143
121.5 264.286
122.5 320.857
123.5 423.714
124.5 285.286
125.5 275.286
126.5 47.1428
127.5 332.429
128.5 262
129.5 452
130.5 197.714
131.5 459.571
132.5 410.571
133.5 461.714
134.5 266.571
135.5 161.286
136.5 245.286
137.5 187.143
138.5 352.857
139.5 462.714
140.5 380.714
141.5 380.286
142.5 291.857
143.5 337.429
144.5 290
145.5 454.429
146.5 404.143
147.5 476.429
148.5 458.429
149.5 301.714
150.5 489.429
151.5 441
152.5 571.143
153.5 489
154.5 266.286
155.5 298.857
156.5 261.714
157.5 441.571
158.5 308.429
159.5 436.571
160.5 437.857
161.5 415.857
162.5 558.571
163.5 444.714
164.5 541.429
165.5 323.286
166.5 315
167.5 310.286
168.5 283.286
169.5 475.429
170.5 247.714
171.5 57.1428
172.5 526.857
173.5 917
174.5 1341.43
175.5 507.714
176.5 255
177.5 195
178.5 161.286
179.5 284.143
180.5 76.4285
181.5 306
182.5 370.286
183.5 190.286
184.5 335
185.5 180.714
186.5 230.571
187.5 214.714
188.5 362.286
189.5 331
190.5 160.857
191.5 416.143
192.5 339.286
193.5 331.857
194.5 330.286
195.5 484.714
196.5 223.714
197.5 335
198.5 476.571
199.5 544.857
200.5 476.429
201.5 457.857
202.5 465.571
203.5 855.571
204.5 621.286
205.5 764
206.5 766.143
207.5 636.857
208.5 691.714
209.5 452.571
210.5 673.571
211.5 372.714
212.5 437.286
213.5 317
214.5 348.714
215.5 455
216.5 515.714
217.5 537.714
218.5 543.571
219.5 403
220.5 468.571
221.5 190.429
222.5 278.286
223.5 387.857
224.5 396.429
225.5 359.571
226.5 239.714
227.5 222.286
228.5 382.857
229.5 436.429
230.5 354.143
231.5 482.571
232.5 178
233.5 386.143
234.5 394.286
235.5 490.286
236.5 664.429
237.5 548
238.5 692.714
239.5 478.857
240.5 690
241.5 530.714
242.5 663.429
243.5 414.143
244.5 614.143
245.5 431.857
246.5 590.571
247.5 335.714
248.5 282.429
249.5 410.286
250.5 398.286
251.5 401.857
252.5 212
253.5 258.143
254.5 306.571
255.5 53.1428
256.5 354.286
257.5 219.286
258.5 236
259.5 320.571
260.5 282.429
261.5 388.286
262.5 482.714
263.5 238.571
264.5 245.571
265.5 72.4285
266.5 153.429
267.5 77.1428
268.5 235
269.5 -101.143
270.5 173.286
271.5 109.714
272.5 261.857
273.5 220.429
274.5 145.857
275.5 102.571
276.5 175.571
277.5 319.571
278.5 34.1428
279.5 116
280.5 66.4285
281.5 60.1428
282.5 -0.142892
283.5 80
284.5 242
285.5 253.714
286.5 395
287.5 329.857
288.5 442.857
289.5 467.143
290.5 563.857
291.5 154.143
292.5 126.143
293.5 173.286
294.5 272.857
295.5 287.714
296.5 366.143
297.5 395.857
298.5 554.143
299.5 371.714
300.5 472.429
301.5 568.857
302.5 492.857
303.5 510.857
304.5 445
305.5 656.857
306.5 894.857
307.5 574.857
308.5 653.429
309.5 725.143
310.5 885.857
311.5 704.714
312.5 751.429
313.5 711.429
314.5 871
315.5 518
316.5 416.714
317.5 403.143
318.5 236.286
319.5 456.143
320.5 242.143
321.5 444.857
322.5 373.286
323.5 375
324.5 326
325.5 310
326.5 416.857
327.5 382.714
328.5 319.143
329.5 345
330.5 397.714
331.5 457.429
332.5 315.143
333.5 272.714
334.5 262.143
335.5 350.571
336.5 286.714
337.5 267.571
338.5 232.571
339.5 204
340.5 10.2857
341.5 91
342.5 -43.4286
343.5 -29.8572
344.5 36.2857
345.5 65.8571
346.5 137.571
347.5 309.714
348.5 90.5714
349.5 83
350.5 168.857
351.5 210.857
352.5 120.286
353.5 27
354.5 -12.7143
355.5 163.571
356.5 176.571
357.5 285.429
358.5 224.143
359.5 112.429
360.5 300.429
361.5 314.571
362.5 429.429
363.5 374.429
364.5 330.714
365.5 255.286
366.5 303.429
367.5 378.571
368.5 301.286
369.5 314.714
370.5 265.714
371.5 218
372.5 193
373.5 304.429
374.5 346.857
375.5 307.714
376.5 248.714
377.5 286
378.5 315.286
379.5 298.571
380.5 329.429
381.5 394.857
382.5 126.143
383.5 312.143
384.5 118.143
385.5 291.857
386.5 69.7143
387.5 233.143
388.5 291.143
389.5 298.714
390.5 283.857
391.5 250.429
392.5 117.714
393.5 378.857
394.5 247.286
395.5 115.429
396.5 251.286
397.5 198.429
398.5 167
399.5 324.143
400.5 284.857
401.5 300.714
402.5 255.143
403.5 621.143
404.5 578.429
405.5 362.143
406.5 315.571
407.5 324.429
408.5 244
409.5 234.571
410.5 226.714
411.5 201.571
412.5 324.429
413.5 136.286
414.5 285.857
415.5 106.857
416.5 137
417.5 364.429
418.5 228.286
419.5 146
420.5 174.143
421.5 132.857
422.5 173.429
423.5 45.2857
424.5 30.8571
425.5 118.429
426.5 130.714
427.5 104.286
428.5 274.286
429.5 183.857
430.5 158
431.5 197.714
432.5 184.143
433.5 94.8571
434.5 10.2857
435.5 91.1428
436.5 175.429
437.5 167
438.5 7.71427
439.5 133.571
440.5 -12.7143
441.5 139.143
442.5 135
443.5 47.1428
444.5 189.571
445.5 168.571
446.5 224
447.5 74.8571
448.5 215.286
449.5 95.8571
450.5 192.429
451.5 172.286
452.5 93.5714
453.5 199.571
454.5 163.857
455.5 114.429
456.5 23.5714
457.5 106
458.5 1.42855
459.5 51.4286
460.5 83.4286
461.5 201.571
462.5 351.714
463.5 128.857
464.5 110.429
465.5 312.714
466.5 170
467.5 165.571
468.5 220.143
469.5 187.857
470.5 347
471.5 255.714
472.5 313.714
473.5 196.857
474.5 208.714
475.5 259.429
476.5 242.143
477.5 67.2857
478.5 230.714
479.5 57.7143
480.5 254.571
481.5 166.571
482.5 48.5714
483.5 169.429
484.5 181.571
485.5 95.5714
486.5 122.857
487.5 144.571
488.5 128.429
489.5 116.143
490.5 219.286
491.5 179
492.5 270.571
493.5 148.714
494.5 168.714
495.5 78.1428
496.5 143.286
497.5 187.143
498.5 206.714
499.5 294
500.5 169
501.5 259.857
502.5 273.429
503.5 227.429
504.5 203.857
505.5 277.857
506.5 774.571
507.5 1353.86
508.5 2203.14
509.5 3186.71
510.5 3923
511.5 3321
512.5 1833
513.5 821.571
514.5 274.714
515.5 68.7143
516.5 87
517.5 -53.5714
518.5 -15.8572
519.5 9.42856
520.5 73
521.5 -20.5714
522.5 47.5714
523.5 5.2857
524.5 56.7143
525.5 79.4286
526.5 -18.2857
527.5 80.5714
528.5 -91.7143
529.5 -124.857
530.5 -47
531.5 26
532.5 -72.1429
533.5 -6.14287
534.5 54.2857
535.5 104.286
536.5 85.8571
537.5 6.99999
538.5 81.7143
539.5 -12.8572
540.5 10.7143
541.5 136.714
542.5 287.143
543.5 223.429
544.5 190.286
545.5 262
546.5 256.714
547.5 60.4286
548.5 325.714
549.5 177
550.5 190.857
551.5 329
552.5 208.429
553.5 147.143
554.5 -14.8572
555.5 -591.429
556.5 -1071.29
557.5 -388.714
558.5 92.5714
559.5 231.857
560.5 56.2857
561.5 161.571
562.5 66.7143
563.5 109.571
564.5 187.714
565.5 157.714
566.5 206.714
567.5 163.429
568.5 3.99999
569.5 158.143
570.5 213.714
571.5 63
572.5 53.8571
573.5 163
574.5 50.7143
575.5 96.1428
576.5 88.2857
577.5 79.5714
578.5 147.143
579.5 149.714
580.5 182.857
581.5 209.714
582.5 705.143
583.5 1409.71
584.5 795
585.5 261.857
586.5 188
587.5 159.429
588.5 81.2857
589.5 128.714
590.5 177.714
591.5 51.5714
592.5 114.857
593.5 175.857
594.5 151.571
595.5 243.857
596.5 307.857
597.5 121.857
598.5 118.857
599.5 173.143
600.5 106.286
601.5 154.286
602.5 -41.4286
603.5 142
604.5 71.8571
605.5 75
606.5 73.8571
607.5 163.714
608.5 56.1428
609.5 96.8571
610.5 89.7143
611.5 74.5714
612.5 155.143
613.5 77.8571
614.5 186.714
615.5 189.286
616.5 205.429
617.5 185.429
618.5 231.571
619.5 76
620.5 128.143
621.5 67.4286
622.5 127
623.5 65.8571
624.5 10.7143
625.5 174.857
626.5 118.714
627.5 90
628.5 128.571
629.5 -17.5714
630.5 73.4286
631.5 120.714
632.5 129.286
633.5 244.857
634.5 207
635.5 220.286
636.5 56.2857
637.5 38.8571
638.5 173.857
639.5 132
640.5 77.5714
641.5 162.857
642.5 40.7143
643.5 183.857
644.5 114.286
645.5 202.429
646.5 77.1428
647.5 33
648.5 96.5714
649.5 34.1428
650.5 -91
651.5 129.571
652.5 345.714
653.5 692.857
654.5 540.857
655.5 250
656.5 143.143
657.5 73.7143
658.5 85.1428
659.5 130
660.5 68.5714
661.5 66
662.5 -30.5714
663.5 -307
664.5 -1203.14
665.5 -1188.14
666.5 -389
667.5 -7.85716
668.5 45.2857
669.5 94.1428
670.5 116.286
671.5 74.1428
672.5 99.4286
673.5 87.5714
674.5 104.714
675.5 60.8571
676.5 150.714
677.5 65.4286
678.5 66.8571
679.5 145.143
680.5 -27.4286
681.5 154.143
682.5 106.143
683.5 53.5714
684.5 131.286
685.5 165.714
686.5 113
687.5 73.8571
688.5 57.5714
689.5 -124.571
690.5 110
691.5 84.8571
692.5 15.8571
693.5 -4.00001
694.5 32.5714
695.5 62.2857
696.5 108.571
697.5 108.857
698.5 77
699.5 -16.8572
700.5 34.4286
701.5 82
702.5 88
703.5 61.2857
704.5 30.8571
705.5 85.5714
706.5 58.5714
707.5 5.2857
708.5 30.4286
709.5 107.714
710.5 158.143
711.5 120.714
712.5 206
713.5 -30.7143
714.5 151.429
715.5 76.4286
716.5 63.8571
717.5 159
718.5 87.8571
719.5 174.286
720.5 110.571
721.5 105.857
722.5 117.857
723.5 128.857
724.5 142.143
725.5 202
726.5 104.714
727.5 73.5714
728.5 226.571
729.5 142.571
730.5 -10
731.5 -10.5714
732.5 107.857
733.5 -3.7143
734.5 123.857
735.5 104.286
736.5 94.2857
737.5 10.7143
738.5 132
739.5 108
740.5 115.286
741.5 41.2857
742.5 84.7143
743.5 92.8571
744.5 155.286
745.5 96
746.5 720
747.5 1292
748.5 952.571
749.5 425.714
750.5 154.429
751.5 151.286
752.5 97.4286
753.5 141.714
754.5 7.99999
755.5 66.4286
756.5 207.857
757.5 115.571
758.5 77.4286
759.5 60.7143
760.5 168.429
761.5 21.1428
762.5 109
763.5 46.2857
764.5 94.8571
765.5 -0.285725
766.5 5.99999
767.5 211.857
768.5 76.7143
769.5 24.2857
770.5 88.1428
771.5 14.7143
772.5 59.1428
773.5 61.2857
774.5 67.2857
775.5 133.571
776.5 131.857
777.5 42.1428
778.5 109
779.5 39.1428
780.5 9.57142
781.5 15.4286
782.5 78.8571
783.5 163.714
784.5 124.714
785.5 92.8571
786.5 77.1428
787.5 110.857
788.5 149.286
789.5 78.4286
790.5 269
791.5 125.714
792.5 179.143
793.5 165.571
794.5 85.8571
795.5 171.286
796.5 255.143
797.5 149.429
798.5 176.857
799.5 125
800.5 130.571
801.5 103
802.5 51.1428
803.5 177.714
804.5 5.2857
805.5 97.7143
806.5 88.8571
807.5 147
808.5 121
809.5 101.143
810.5 -9.85715
811.5 128.143
812.5 86.5714
813.5 154.571
814.5 122.429
815.5 72.8571
816.5 67.4286
817.5 71.8571
818.5 160.286
819.5 161.857
820.5 162.714
821.5 109.429
822.5 133.714
823.5 49.2857
824.5 73.2857
825.5 154.571
826.5 130.571
827.5 75.8571
828.5 130.429
829.5 33.1428
830.5 46.7143
831.5 185.429
832.5 49.4286
833.5 82.1428
834.5 105.429
835.5 7.14285
836.5 12
837.5 57.5714
838.5 139.571
839.5 164.857
840.5 104.429
841.5 125.714
842.5 82.2857
843.5 49.8571
844.5 43.5714
845.5 40.1428
846.5 185.857
847.5 115.286
848.5 207.286
849.5 181.143
850.5 152.286
851.5 73
852.5 73.1428
853.5 88.7143
854.5 90.5714
855.5 98.5714
856.5 45
857.5 118.571
858.5 48.1428
859.5 55
860.5 23.1428
861.5 133.714
862.5 108.143
863.5 -22
864.5 -17.5714
865.5 108
866.5 -44.2857
867.5 37.2857
868.5 71.1428
869.5 21.5714
870.5 60.5714
871.5 100.714
872.5 -23.1429
873.5 4.42856
874.5 -0.142868
875.5 136.714
876.5 57.7143
877.5 -19.5714
878.5 132.857
879.5 -18.2857
880.5 114.143
881.5 50
882.5 155.714
883.5 132.571
884.5 165
885.5 76.4286
886.5 85.2857
887.5 134.286
888.5 104.286
889.5 186.286
890.5 283
891.5 307.857
892.5 252.714
893.5 206.857
894.5 45.7143
895.5 102.143
896.5 100.857
897.5 65.8571
898.5 198.429
899.5 82.8571
900.5 43.1428
901.5 118.286
902.5 65.1428
903.5 152.286
904.5 149.143
905.5 123.143
906.5 159.714
907.5 29.2857
908.5 88
909.5 166.857
910.5 21.7143
911.5 192.857
912.5 79
913.5 132.857
914.5 62.8571
915.5 143.286
916.5 84.2857
917.5 14
918.5 159.857
919.5 46.8571
920.5 94.4286
921.5 21.7143
922.5 152.429
923.5 18
924.5 161.143
925.5 57.2857
926.5 96.1428
927.5 73.5714
928.5 19.8571
929.5 2.2857
930.5 32.7143
931.5 107.857
932.5 66
933.5 139
934.5 54.8571
935.5 40.2857
936.5 -14.7143
937.5 78.8571
938.5 188.429
939.5 119.286
940.5 163.429
941.5 26.2857
942.5 63.8571
943.5 145.714
944.5 10.7143
945.5 119.857
946.5 130
947.5 147.857
948.5 24.8571
949.5 83
950.5 98.7143
951.5 36.8571
952.5 65.2857
953.5 46.7143
954.5 158.429
955.5 6.85713
956.5 110.571
957.5 68
958.5 81.2857
959.5 255.714
960.5 332.143
961.5 275.857
962.5 66.1428
963.5 82.5714
964.5 170.143
965.5 122.429
966.5 -22.7143
967.5 41.4286
968.5 117.857
969.5 42.2857
970.5 71.5714
971.5 41.8571
972.5 101.571
973.5 79
974.5 191.857
975.5 50
976.5 125
977.5 64
978.5 107.571
979.5 118.286
980.5 -9.14287
981.5 130.429
982.5 77.8571
983.5 18.5714
984.5 146.429
985.5 89.4286
986.5 202.571
987.5 222
988.5 283.714
989.5 399.857
990.5 255.286
991.5 231.571
992.5 171.429
993.5 112.571
994.5 8.71428
995.5 151.714
996.5 125
997.5 61.2857
998.5 138.429
999.5 71.1428
1000.5 107.857
1001.5 75.4285
1002.5 172.857
1003.5 145.429
1004.5 -57.2857
1005.5 139.714
1006.5 103.286
1007.5 2.85713
1008.5 75.1428
1009.5 25.8571
1010.5 53.8571
1011.5 116.286
1012.5 69.1429
1013.5 95.8571
1014.5 94.8571
1015.5 43.2857
1016.5 171.286
1017.5 135.143
1018.5 127.429
1019.5 55.7143
1020.5 93.4286
1021.5 125.571
1022.5 81.8571
1023.5 136.714
1024.5 147.286
1025.5 111.857
1026.5 80.1428
1027.5 -17.4286
1028.5 60.5714
1029.5 70.7143
1030.5 54.8571
1031.5 80.1429
1032.5 33.2857
1033.5 12.4286
1034.5 38.4286
1035.5 129.714
1036.5 56.4286
1037.5 116
1038.5 74.1429
1039.5 73.2857
1040.5 -42.1429
1041.5 9.28571
1042.5 54.8571
1043.5 42.7143
1044.5 54
1045.5 68.8571
1046.5 85
1047.5 79.7143
1048.5 28.4286
1049.5 32.2857
1050.5 190.571
1051.5 234.143
1052.5 133.571
1053.5 67.2857
1054.5 13
1055.5 68.2857
1056.5 75.7143
1057.5 76.8571
1058.5 38
1059.5 55.4286
1060.5 63.1429
1061.5 44.4286
1062.5 73.1429
1063.5 -7.14286
1064.5 74.7143
1065.5 -17.2857
1066.5 50.8571
1067.5 78.2857
1068.5 109.429
1069.5 -40.5714
1070.5 77.7143
1071.5 71.4286
1072.5 195
1073.5 402.143
1074.5 393.429
1075.5 280.429
1076.5 22.5714
1077.5 90.5714
1078.5 63.5714
1079.5 114.143
1080.5 86.5714
1081.5 75.1429
1082.5 53.8571
1083.5 110.857
1084.5 71.4286
1085.5 101.571
1086.5 96.7143
1087.5 58.4286
1088.5 61.8571
1089.5 89.4286
1090.5 88.4286
1091.5 27.1429
1092.5 99.2857
1093.5 162.571
1094.5 48
1095.5 3.28571
1096.5 150.571
1097.5 42.5714
1098.5 8.57142
1099.5 83.2857
1100.5 -40.7143
1101.5 77.8571
1102.5 41.5714
1103.5 78.1429
1104.5 66.4286
1105.5 93.2857
1106.5 111
1107.5 57.7143
1108.5 83.7143
1109.5 57.2857
1110.5 74.8571
1111.5 48.1429
1112.5 41.4286
1113.5 57.2857
1114.5 121.714
1115.5 23.2857
1116.5 115.571
1117.5 81.4286
1118.5 47
1119.5 81.5714
1120.5 0.571422
1121.5 87.4286
1122.5 34.2857
1123.5 186.857
1124.5 383.143
1125.5 719
1126.5 1282.29
1127.5 411.714
1128.5 290
1129.5 129.143
1130.5 130.714
1131.5 52.7143
1132.5 55.1429
1133.5 66.2857
1134.5 22.8571
1135.5 35.1429
1136.5 8.85714
1137.5 84.4286
1138.5 106
1139.5 251.143
1140.5 386.714
1141.5 471.571
1142.5 269.286
1143.5 98.4286
1144.5 78.2857
1145.5 37.1429
1146.5 24.4286
1147.5 156.286
1148.5 85.4286
1149.5 86.1429
1150.5 36.7143
1151.5 16.4286
1152.5 56.8571
1153.5 96.8571
1154.5 194.571
1155.5 112
1156.5 504.142
1157.5 266.857
1158.5 255.571
1159.5 150.857
1160.5 -104.429
1161.5 55.2857
1162.5 39.8571
1163.5 68.1429
1164.5 106.286
1165.5 49.8571
1166.5 31.5714
1167.5 51.1429
1168.5 39.2857
1169.5 33.1429
1170.5 42.8571
1171.5 0.285711
1172.5 77.2857
1173.5 40.5714
1174.5 60.1429
1175.5 90.5714
1176.5 34
1177.5 92
1178.5 70.7143
1179.5 -25.1429
1180.5 35.2857
1181.5 85.7143
1182.5 46
1183.5 135
1184.5 132.143
1185.5 161.857
1186.5 109.429
1187.5 74.7143
1188.5 102.429
1189.5 20.7143
1190.5 45.2857
1191.5 32.2857
1192.5 59.8571
1193.5 23.1429
1194.5 54.5714
1195.5 30.1429
1196.5 58.1429
1197.5 -13.8571
1198.5 40.2857
1199.5 20.8571
1200.5 89.2857
1201.5 57.7143
1202.5 89.8571
1203.5 126
1204.5 124
1205.5 63.2857
1206.5 69
1207.5 105.143
1208.5 51
1209.5 -18
1210.5 45.2857
1211.5 62.7143
1212.5 67.1429
1213.5 28
1214.5 54.7143
1215.5 101.143
1216.5 69.8571
1217.5 99.2857
1218.5 68.1429
1219.5 316
1220.5 1091.43
1221.5 2734.43
1222.5 3747.43
1223.5 2131.29
1224.5 624.857
1225.5 166.143
1226.5 110.429
1227.5 -12.1429
1228.5 74
1229.5 -12
1230.5 41.2857
1231.5 20.8571
1232.5 34.5714
1233.5 12.2857
1234.5 66.1429
1235.5 -1.71429
1236.5 51.1429
1237.5 44.5714
1238.5 51.7143
1239.5 131.286
1240.5 32.8571
1241.5 70
1242.5 30.7143
1243.5 98.4286
1244.5 54.8571
1245.5 43.2857
1246.5 50.2857
1247.5 46.4286
1248.5 55.7143
1249.5 49.2857
1250.5 5.85714
1251.5 23
1252.5 -24.7143
1253.5 87.8571
1254.5 99.2857
1255.5 39.8571
1256.5 13.2857
1257.5 29.5714
1258.5 51.5714
1259.5 -230
1260.5 -731
1261.5 -1315.86
1262.5 -965.714
1263.5 -359
1264.5 -34.4286
1265.5 37
1266.5 72.1429
1267.5 7.71428
1268.5 11.4286
1269.5 76.1429
1270.5 96.2857
1271.5 69.2857
1272.5 129.429
1273.5 85.5714
1274.5 39.2857
1275.5 52.7143
1276.5 71.7143
1277.5 73.4286
1278.5 72.2857
1279.5 58.4286
1280.5 73.8571
1281.5 55.8571
1282.5 8.14285
1283.5 29.7143
1284.5 46.5714
1285.5 70.4286
1286.5 74
1287.5 82
1288.5 57
1289.5 79.5714
1290.5 84.7143
1291.5 56.4286
1292.5 46.2857
1293.5 97.2857
1294.5 101.143
1295.5 87.5714
1296.5 78.5714
1297.5 65.7143
1298.5 29.8571
1299.5 39.5714
1300.5 80.2857
1301.5 61.7143
1302.5 56.5714
1303.5 50.1429
1304.5 9.85714
1305.5 18.2857
1306.5 10.2857
1307.5 -44.4286
1308.5 99
1309.5 46.4286
1310.5 53.7143
1311.5 27.7143
1312.5 35.7143
1313.5 93.4286
1314.5 44.7143
1315.5 33.7143
1316.5 81.8571
1317.5 107.286
1318.5 74.5714
1319.5 34.7143
1320.5 74
1321.5 73.7143
1322.5 72.5714
1323.5 88.8571
1324.5 125.857
1325.5 74.5714
1326.5 131.857
1327.5 105.571
1328.5 80
1329.5 24.2857
1330.5 40.2857
1331.5 70.2857
1332.5 40.4286
1333.5 77.5714
1334.5 34.5714
1335.5 33.2857
1336.5 58.7143
1337.5 36.7143
1338.5 35.5714
1339.5 78.2857
1340.5 74.4286
1341.5 59
1342.5 119
1343.5 31.2857
1344.5 -13
1345.5 22.1429
1346.5 24.2857
1347.5 50.5714
1348.5 9.85714
1349.5 68.2857
1350.5 89.2857
1351.5 62.1429
1352.5 73.8571
1353.5 31.8571
1354.5 32.1429
1355.5 49.8571
1356.5 80.8571
1357.5 73
1358.5 22.4286
1359.5 74.1429
1360.5 47.4286
1361.5 45.5714
1362.5 48.7143
1363.5 76.5714
1364.5 87.4286
1365.5 136.714
1366.5 124
1367.5 130
1368.5 100.857
1369.5 42.2857
1370.5 63.4286
1371.5 60.8571
1372.5 95.4286
1373.5 19.1429
1374.5 55.5714
1375.5 54.4286
1376.5 93.7143
1377.5 4
1378.5 92
1379.5 125.571
1380.5 88.7143
1381.5 49.2857
1382.5 75.5714
1383.5 45.2857
1384.5 54.2857
1385.5 1.28571
1386.5 21.1429
1387.5 76.4286
1388.5 80.8571
1389.5 51.4286
1390.5 1.85714
1391.5 -12.7143
1392.5 7.14285
1393.5 46
1394.5 67.7143
1395.5 100.714
1396.5 39.4286
1397.5 33
1398.5 75
1399.5 15.1429
1400.5 83.2857
1401.5 28.4286
1402.5 38.5714
1403.5 -13.5714
1404.5 19.1429
1405.5 25.5714
1406.5 90
1407.5 66
1408.5 0.571426
1409.5 69.2857
1410.5 30.7143
1411.5 6.42857
1412.5 74.8571
1413.5 43.5714
1414.5 78.7143
1415.5 16.4286
1416.5 53.8571
1417.5 99
1418.5 92.1429
1419.5 86.1429
1420.5 89.8571
1421.5 52.5714
1422.5 51.7143
1423.5 21.8571
1424.5 49.5714
1425.5 15.8571
1426.5 32.8571
1427.5 110.857
1428.5 285.857
1429.5 131.429
1430.5 49.5714
1431.5 34.7143
1432.5 75
1433.5 75.4286
1434.5 34.7143
1435.5 49.4286
1436.5 89.5714
1437.5 80.5714
1438.5 41.2857
1439.5 33.8571
1440.5 86
1441.5 64
1442.5 33.2857
1443.5 15
1444.5 56.8571
1445.5 -28
1446.5 32.1429
1447.5 42.1429
1448.5 13.1429
1449.5 27.1429
