# EGG_ProjY_E5161.5(8.5)_B5149.5(3.5)
# X axis : Energy (keV) [Y axis]
# Y axis : Counts/1 keV
# N Bins : 12000
# X Min : 0
# X Max : 12000
# X value at the center of the bins
0.5 0
1.5 0
2.5 0
3.5 0
4.5 0
5.5 18.4286
6.5 69.4286
7.5 24.1429
8.5 -24.1429
9.5 17.8571
10.5 70.2857
11.5 46.4286
12.5 68.4286
13.5 26
14.5 54.8571
15.5 20.8571
16.5 9.85713
17.5 82
18.5 37.2857
19.5 99.1428
20.5 56.2857
21.5 165.571
22.5 202.143
23.5 133
24.5 83.1428
25.5 95.7143
26.5 246.714
27.5 165
28.5 124.286
29.5 300.429
30.5 360
31.5 403.857
32.5 293.286
33.5 338.714
34.5 421.143
35.5 364.143
36.5 354.571
37.5 158.429
38.5 403.714
39.5 507.857
40.5 307.857
41.5 345.143
42.5 438.429
43.5 532
44.5 295.286
45.5 320.429
46.5 382.857
47.5 257.143
48.5 534.714
49.5 361.429
50.5 145.571
51.5 375.571
52.5 425.857
53.5 451.429
54.5 329.286
55.5 391.571
56.5 630.857
57.5 523
58.5 918.714
59.5 717.714
60.5 672.571
61.5 534.857
62.5 493
63.5 550.286
64.5 539
65.5 658.143
66.5 630.143
67.5 621.286
68.5 654.571
69.5 728.714
70.5 606.286
71.5 439.286
72.5 536.571
73.5 675.286
74.5 873.714
75.5 797.571
76.5 1222.71
77.5 1389
78.5 697.857
79.5 530.286
80.5 498.143
81.5 508.143
82.5 500.714
83.5 689.714
84.5 570.714
85.5 384.286
86.5 579.286
87.5 705.143
88.5 564.714
89.5 618.857
90.5 579.714
91.5 791.429
92.5 405.857
93.5 397.429
94.5 283.714
95.5 495.286
96.5 551.286
97.5 472.571
98.5 399.857
99.5 761.571
100.5 478.857
101.5 790.571
102.5 648.286
103.5 771.571
104.5 702.857
105.5 670.143
106.5 900.286
107.5 795
108.5 851.143
109.5 575.857
110.5 669.857
111.5 660.714
112.5 585.143
113.5 454.571
114.5 919.286
115.5 635.857
116.5 807.857
117.5 599.143
118.5 663
119.5 781.714
120.5 442
121.5 689.143
122.5 665
123.5 538
124.5 592.571
125.5 500.286
126.5 454.857
127.5 697.143
128.5 538.571
129.5 714.429
130.5 618
131.5 628.286
132.5 624.143
133.5 663.143
134.5 647.714
135.5 708.857
136.5 741.857
137.5 646.429
138.5 730.286
139.5 459.429
140.5 836.143
141.5 973.143
142.5 671.286
143.5 533.286
144.5 773.714
145.5 830.143
146.5 912.857
147.5 980.571
148.5 843.571
149.5 654.286
150.5 867
151.5 1060.43
152.5 997
153.5 925.714
154.5 939.714
155.5 1048.71
156.5 1114.57
157.5 1133.43
158.5 1088.29
159.5 1153.71
160.5 1241.14
161.5 1224.86
162.5 1124.71
163.5 1043.86
164.5 1118.14
165.5 1052
166.5 900.857
167.5 657.571
168.5 855.571
169.5 967
170.5 1125.29
171.5 1408.86
172.5 3459
173.5 12813.7
174.5 24504.1
175.5 10529.3
176.5 1770.29
177.5 440.714
178.5 174.286
179.5 226.286
180.5 279.286
181.5 198.286
182.5 334
183.5 888.857
184.5 814
185.5 1084
186.5 981
187.5 1054.14
188.5 781.286
189.5 999.714
190.5 896.429
191.5 976.714
192.5 992.143
193.5 755.143
194.5 880.429
195.5 686.286
196.5 580.286
197.5 717.143
198.5 738.286
199.5 211.857
200.5 88.9999
201.5 24.7142
202.5 -248.143
203.5 -561.714
204.5 -720.714
205.5 -413.429
206.5 -336.714
207.5 -11.0001
208.5 129.714
209.5 618
210.5 386.429
211.5 454.429
212.5 632.286
213.5 547.857
214.5 748.714
215.5 883
216.5 1125.43
217.5 1350.14
218.5 1221.71
219.5 1230
220.5 1440.14
221.5 1600.14
222.5 1821.43
223.5 1770.86
224.5 1807.57
225.5 1800.43
226.5 2011
227.5 2158
228.5 2000.43
229.5 2247.71
230.5 1910.29
231.5 1893.57
232.5 1190.57
233.5 972.286
234.5 619
235.5 38.9999
236.5 -190.429
237.5 -443.143
238.5 -609.714
239.5 -633.429
240.5 -358
241.5 -612.572
242.5 -719.143
243.5 -894.714
244.5 -1012.71
245.5 -1236.86
246.5 -1426.57
247.5 -1452.86
248.5 -1084
249.5 -961.286
250.5 -341
251.5 -110.143
252.5 130.143
253.5 252.571
254.5 369.429
255.5 406.714
256.5 584.857
257.5 445.571
258.5 540.857
259.5 478.857
260.5 415.143
261.5 566
262.5 348.143
263.5 307.571
264.5 479.571
265.5 445.857
266.5 400.143
267.5 491.286
268.5 432.143
269.5 489
270.5 437.571
271.5 432.571
272.5 320.429
273.5 425.286
274.5 427
275.5 686
276.5 438
277.5 424.571
278.5 530.571
279.5 439.714
280.5 601.714
281.5 551.143
282.5 535.143
283.5 721.286
284.5 525.429
285.5 500.714
286.5 444.286
287.5 526.143
288.5 387.571
289.5 538.714
290.5 525.286
291.5 257.857
292.5 336
293.5 278.143
294.5 417.857
295.5 420.286
296.5 413
297.5 482.857
298.5 595
299.5 458
300.5 586.571
301.5 454.714
302.5 448.571
303.5 780
304.5 464
305.5 404.571
306.5 624.571
307.5 466.571
308.5 444.429
309.5 497.286
310.5 589.714
311.5 601
312.5 508
313.5 489.286
314.5 525.857
315.5 713.286
316.5 590.143
317.5 587.571
318.5 529.286
319.5 617.286
320.5 752
321.5 568.857
322.5 722.857
323.5 649.714
324.5 755.571
325.5 701.857
326.5 806.571
327.5 734.286
328.5 631.857
329.5 1010.14
330.5 548
331.5 702.857
332.5 510.571
333.5 185.143
334.5 221.714
335.5 -87.5715
336.5 -37.7143
337.5 -123.286
338.5 -161.714
339.5 92.8571
340.5 68.8571
341.5 179.857
342.5 151.429
343.5 356
344.5 752.857
345.5 689.714
346.5 671.286
347.5 1201.29
348.5 3693.86
349.5 5641.57
350.5 3014.57
351.5 916.571
352.5 741.571
353.5 608.429
354.5 670.857
355.5 547.857
356.5 629.429
357.5 614.143
358.5 420.429
359.5 429.714
360.5 137.857
361.5 166.857
362.5 117.429
363.5 -55.4286
364.5 -47.2858
365.5 -123.571
366.5 -43.1429
367.5 21.1428
368.5 93.8571
369.5 231
370.5 223.714
371.5 151.143
372.5 183.857
373.5 357.429
374.5 448.857
375.5 305.857
376.5 288.143
377.5 273.714
378.5 381.714
379.5 344.571
380.5 289.571
381.5 332.714
382.5 281.714
383.5 221.857
384.5 122.429
385.5 66.7143
386.5 74.2857
387.5 178.857
388.5 33
389.5 78.2857
390.5 177.429
391.5 207.429
392.5 249.286
393.5 47.4285
394.5 198
395.5 188.429
396.5 249.571
397.5 264.429
398.5 297.571
399.5 226.429
400.5 404.429
401.5 326.714
402.5 398.571
403.5 467.857
404.5 266.571
405.5 338.714
406.5 166.714
407.5 104.714
408.5 108.571
409.5 330
410.5 288.857
411.5 491.429
412.5 498.286
413.5 409.714
414.5 483.714
415.5 360
416.5 555.286
417.5 303.571
418.5 517
419.5 381.429
420.5 540.571
421.5 569.143
422.5 330.429
423.5 489.714
424.5 365.571
425.5 205.429
426.5 356.429
427.5 201.857
428.5 136.286
429.5 132.857
430.5 127.429
431.5 160.429
432.5 120.286
433.5 45.1428
434.5 311
435.5 160.714
436.5 354.714
437.5 238.857
438.5 236.143
439.5 198.714
440.5 252.429
441.5 369.571
442.5 478.857
443.5 276.571
444.5 324.571
445.5 442.857
446.5 344.143
447.5 215
448.5 372.714
449.5 341.429
450.5 401.571
451.5 226
452.5 301.429
453.5 309.143
454.5 379.571
455.5 338
456.5 316.429
457.5 177.143
458.5 107.429
459.5 61.2857
460.5 92.4285
461.5 -64.1429
462.5 -33.5715
463.5 -55.4286
464.5 252.286
465.5 400.286
466.5 165.143
467.5 150.571
468.5 266.143
469.5 201.143
470.5 133.429
471.5 277
472.5 415.429
473.5 226.286
474.5 229.429
475.5 175.429
476.5 364
477.5 277.571
478.5 224
479.5 373.429
480.5 267
481.5 396.857
482.5 182.714
483.5 36.1428
484.5 312.857
485.5 270
486.5 213.286
487.5 100.857
488.5 186.143
489.5 246.286
490.5 374.571
491.5 215
492.5 225.857
493.5 260.857
494.5 190.429
495.5 308.571
496.5 201.286
497.5 231.571
498.5 398.857
499.5 451.286
500.5 316.143
501.5 247.571
502.5 335.714
503.5 282.857
504.5 351.714
505.5 525.286
506.5 744.143
507.5 1512.14
508.5 1463.14
509.5 2319.57
510.5 3321.14
511.5 3159.29
512.5 1894.43
513.5 867.286
514.5 385.429
515.5 365.143
516.5 251.143
517.5 234.429
518.5 107
519.5 138.143
520.5 147.286
521.5 272.857
522.5 216.571
523.5 264.714
524.5 102.857
525.5 156.429
526.5 142.571
527.5 199.571
528.5 172.714
529.5 223.143
530.5 238.429
531.5 312.143
532.5 220.857
533.5 138
534.5 235.286
535.5 332.143
536.5 187.857
537.5 177.857
538.5 120.714
539.5 211
540.5 217.857
541.5 250.143
542.5 152.143
543.5 219
544.5 229.857
545.5 194
546.5 234.429
547.5 144.143
548.5 217.571
549.5 266.714
550.5 306
551.5 212.714
552.5 252.571
553.5 191.571
554.5 319.143
555.5 471.429
556.5 402.571
557.5 330.857
558.5 206.857
559.5 149.857
560.5 203.571
561.5 129.286
562.5 242.571
563.5 201.286
564.5 92.4286
565.5 172.143
566.5 83.8571
567.5 224.286
568.5 178.286
569.5 150.857
570.5 79.7143
571.5 237
572.5 297.429
573.5 289.857
574.5 148.571
575.5 243.143
576.5 177.429
577.5 286.429
578.5 255
579.5 346
580.5 117.143
581.5 279.714
582.5 407.857
583.5 331.143
584.5 157
585.5 92.4286
586.5 303
587.5 211.571
588.5 196.571
589.5 238.143
590.5 193
591.5 169.571
592.5 348.714
593.5 253.857
594.5 224.143
595.5 298.429
596.5 312.857
597.5 336.429
598.5 306.286
599.5 150.286
600.5 233.286
601.5 -1.57145
602.5 194
603.5 148
604.5 96.5714
605.5 178.571
606.5 55.4286
607.5 87.5714
608.5 165.857
609.5 163.571
610.5 150.857
611.5 263.714
612.5 217.143
613.5 254.143
614.5 214.857
615.5 208.143
616.5 254.571
617.5 110.286
618.5 180.429
619.5 188
620.5 180.143
621.5 251.857
622.5 147.857
623.5 158.429
624.5 185.857
625.5 259.143
626.5 208
627.5 227.857
628.5 280.429
629.5 238.143
630.5 131.429
631.5 220
632.5 220.571
633.5 222.286
634.5 191
635.5 37.1428
636.5 207
637.5 194.429
638.5 128
639.5 240.143
640.5 138.429
641.5 120.857
642.5 119.857
643.5 98.8571
644.5 214.714
645.5 259.143
646.5 194.571
647.5 205.571
648.5 128.857
649.5 274
650.5 229
651.5 335.857
652.5 329.714
653.5 179
654.5 298.143
655.5 237.143
656.5 89.7143
657.5 204.714
658.5 225.286
659.5 235.714
660.5 206.714
661.5 113.286
662.5 193.571
663.5 373.714
664.5 253.286
665.5 197.571
666.5 218.143
667.5 220.429
668.5 208.429
669.5 186.571
670.5 195.857
671.5 195.429
672.5 247
673.5 271.857
674.5 170.429
675.5 180.857
676.5 132.286
677.5 186.286
678.5 162.286
679.5 76.1428
680.5 80.7143
681.5 240
682.5 251.286
683.5 214.571
684.5 103.571
685.5 182.714
686.5 131.429
687.5 -20.4286
688.5 155.571
689.5 40.5714
690.5 127.857
691.5 139.286
692.5 87.2857
693.5 7.14284
694.5 236
695.5 91.1428
696.5 70.5714
697.5 132.286
698.5 66.5714
699.5 208.286
700.5 107.714
701.5 210.286
702.5 223.714
703.5 237
704.5 136.571
705.5 98.7143
706.5 104.714
707.5 133.714
708.5 160.571
709.5 88.1428
710.5 182.571
711.5 245.286
712.5 181.286
713.5 224
714.5 205.143
715.5 263.857
716.5 184.286
717.5 163
718.5 142
719.5 202.429
720.5 228.714
721.5 98.1428
722.5 144.857
723.5 107.429
724.5 244
725.5 204.286
726.5 253
727.5 273
728.5 245.571
729.5 272.143
730.5 255.571
731.5 394.143
732.5 415.429
733.5 437.286
734.5 330.429
735.5 370.429
736.5 344.286
737.5 377.714
738.5 415.571
739.5 262.714
740.5 408.143
741.5 344.429
742.5 337.143
743.5 162.143
744.5 129.429
745.5 -51.4286
746.5 -139.857
747.5 -167.714
748.5 -114.429
749.5 -201.429
750.5 -186.714
751.5 -127.143
752.5 -32.8572
753.5 -26.8572
754.5 68.5714
755.5 125.429
756.5 36.5714
757.5 164.714
758.5 203.571
759.5 374.857
760.5 470.286
761.5 382.429
762.5 157.429
763.5 254.571
764.5 141.143
765.5 105.714
766.5 198.429
767.5 168.571
768.5 198.429
769.5 77.4286
770.5 181.857
771.5 81
772.5 152.714
773.5 102.429
774.5 296.429
775.5 141
776.5 185.714
777.5 183.571
778.5 199.429
779.5 233.286
780.5 141.714
781.5 137.286
782.5 28.5714
783.5 131.286
784.5 162.857
785.5 257.286
786.5 317.571
787.5 75.7143
788.5 167.571
789.5 176.857
790.5 276.571
791.5 161.857
792.5 204.143
793.5 195.143
794.5 269.429
795.5 76
796.5 245.571
797.5 263.714
798.5 132
799.5 165.571
800.5 244.143
801.5 99.1428
802.5 105.429
803.5 156.143
804.5 101.714
805.5 69.5714
806.5 -7.57146
807.5 -29
808.5 205.857
809.5 163.857
810.5 168.571
811.5 312.857
812.5 987.286
813.5 2484.43
814.5 3199.43
815.5 1729.43
816.5 515.429
817.5 226.143
818.5 140.286
819.5 246.143
820.5 103.143
821.5 148.143
822.5 260.429
823.5 201.571
824.5 162.429
825.5 282.571
826.5 198
827.5 179.429
828.5 235
829.5 258.286
830.5 246.143
831.5 201
832.5 241.286
833.5 283.286
834.5 299.143
835.5 192
836.5 146.571
837.5 185.143
838.5 195.429
839.5 263.714
840.5 218.857
841.5 199
842.5 195.286
843.5 289.143
844.5 138.143
845.5 71.5714
846.5 87.5714
847.5 95.2857
848.5 73.7143
849.5 65.2857
850.5 97.1428
851.5 164.857
852.5 170.714
853.5 217.571
854.5 268.143
855.5 230.714
856.5 208.429
857.5 245.571
858.5 207.286
859.5 190.714
860.5 255.429
861.5 142.857
862.5 213.714
863.5 237
864.5 173.571
865.5 213.714
866.5 109.286
867.5 159.286
868.5 214.286
869.5 156.143
870.5 323
871.5 327
872.5 211.714
873.5 330.286
874.5 252.286
875.5 181.714
876.5 223.143
877.5 260.571
878.5 219.286
879.5 386.429
880.5 191
881.5 256.429
882.5 55.8571
883.5 236
884.5 228
885.5 199
886.5 154.571
887.5 244.714
888.5 159.429
889.5 229.429
890.5 306.857
891.5 112.143
892.5 75.1428
893.5 269.714
894.5 221.143
895.5 199.143
896.5 257.143
897.5 257.571
898.5 194.571
899.5 168.143
900.5 181
901.5 174
902.5 250.714
903.5 241.857
904.5 150
905.5 263.286
906.5 244.143
907.5 203.286
908.5 185.286
909.5 207.571
910.5 212.571
911.5 335.143
912.5 213.857
913.5 247.286
914.5 277.143
915.5 251.286
916.5 247
917.5 177.286
918.5 124
919.5 116.571
920.5 184.857
921.5 235.429
922.5 263
923.5 221.286
924.5 309.571
925.5 236.286
926.5 336.857
927.5 261.143
928.5 287.286
929.5 319.286
930.5 242.571
931.5 194.714
932.5 172.857
933.5 197.286
934.5 261.286
935.5 239.143
936.5 330.143
937.5 134
938.5 305.571
939.5 370.571
940.5 276.286
941.5 180
942.5 178.143
943.5 277.286
944.5 311.286
945.5 217.571
946.5 286.857
947.5 259.286
948.5 232.857
949.5 288.857
950.5 290.714
951.5 246.571
952.5 213.857
953.5 137.714
954.5 219
955.5 184
956.5 200.714
957.5 206.286
958.5 187
959.5 207.429
960.5 259.857
961.5 186
962.5 172.857
963.5 103.286
964.5 123.714
965.5 331.429
966.5 313.429
967.5 198
968.5 146.571
969.5 110
970.5 192.571
971.5 145.714
972.5 162.571
973.5 49.4286
974.5 165
975.5 138.429
976.5 149.143
977.5 165.429
978.5 190.429
979.5 221
980.5 184.143
981.5 193.286
982.5 254
983.5 123.571
984.5 128.571
985.5 120
986.5 173.714
987.5 166.286
988.5 101.429
989.5 136.143
990.5 111.143
991.5 157.429
992.5 191.429
993.5 146.571
994.5 141.857
995.5 144.571
996.5 159.429
997.5 146.714
998.5 192.571
999.5 179.429
1000.5 -7.00003
1001.5 -79.2858
1002.5 7.99996
1003.5 69.8571
1004.5 196.143
1005.5 182.429
1006.5 153.571
1007.5 83.1428
1008.5 161.286
1009.5 54.7143
1010.5 103.714
1011.5 147.857
1012.5 119.714
1013.5 76.1428
1014.5 171.286
1015.5 135.429
1016.5 221
1017.5 123
1018.5 197.714
1019.5 158.286
1020.5 110.571
1021.5 130.571
1022.5 221.571
1023.5 276.429
1024.5 394.571
1025.5 405.571
1026.5 313.571
1027.5 241.714
1028.5 247
1029.5 199.571
1030.5 199.571
1031.5 67.8571
1032.5 151.286
1033.5 189
1034.5 151.571
1035.5 177.571
1036.5 158.286
1037.5 93.1428
1038.5 193.143
1039.5 123.286
1040.5 182.714
1041.5 187.857
1042.5 72.2857
1043.5 248.571
1044.5 91.7143
1045.5 65.5714
1046.5 95.8571
1047.5 124.286
1048.5 78.8571
1049.5 132.143
1050.5 282.143
1051.5 270.429
1052.5 128.714
1053.5 112.143
1054.5 109.571
1055.5 89.2857
1056.5 116.286
1057.5 230.857
1058.5 103.286
1059.5 106.143
1060.5 117.571
1061.5 159.857
1062.5 133.286
1063.5 142.714
1064.5 146.714
1065.5 118
1066.5 157.143
1067.5 117.429
1068.5 113.286
1069.5 131.857
1070.5 157.143
1071.5 156.714
1072.5 584.143
1073.5 1269
1074.5 2014.43
1075.5 1091.71
1076.5 296.571
1077.5 162.429
1078.5 145.857
1079.5 150
1080.5 77
1081.5 104.429
1082.5 182
1083.5 117.143
1084.5 50.8571
1085.5 72.5714
1086.5 102.714
1087.5 58.1429
1088.5 137
1089.5 63.1429
1090.5 73
1091.5 203
1092.5 185.857
1093.5 88.8571
1094.5 41.2857
1095.5 107.857
1096.5 -11.1429
1097.5 120.571
1098.5 79.7143
1099.5 132.143
1100.5 67.4286
1101.5 134.286
1102.5 126.714
1103.5 124
1104.5 -21.7143
1105.5 74.5714
1106.5 132.714
1107.5 56.5714
1108.5 115.286
1109.5 160.143
1110.5 69.2857
1111.5 109.143
1112.5 120
1113.5 66.8571
1114.5 84.5714
1115.5 96.4286
1116.5 162.286
1117.5 69
1118.5 112.429
1119.5 157.143
1120.5 148.143
1121.5 169.429
1122.5 268.714
1123.5 558.429
1124.5 1269.43
1125.5 2992.29
1126.5 3411.43
1127.5 1594.14
1128.5 386.429
1129.5 153.857
1130.5 163.429
1131.5 78.7143
1132.5 91.4286
1133.5 116.714
1134.5 91.7143
1135.5 102.714
1136.5 61
1137.5 116
1138.5 31.7143
1139.5 63.4286
1140.5 115.286
1141.5 44.5714
1142.5 154.286
1143.5 83.2857
1144.5 21.8571
1145.5 97.8571
1146.5 137.143
1147.5 106.571
1148.5 104
1149.5 61.7143
1150.5 148.429
1151.5 65.2857
1152.5 201.429
1153.5 421.714
1154.5 1240.43
1155.5 4915.57
1156.5 10404.3
1157.5 10500.6
1158.5 4447.14
1159.5 960.286
1160.5 199.143
1161.5 113.714
1162.5 40.8571
1163.5 100.571
1164.5 114.429
1165.5 97
1166.5 82.1429
1167.5 -6.28572
1168.5 -16.4286
1169.5 93.5714
1170.5 51.4286
1171.5 24.5714
1172.5 73.8571
1173.5 68.1429
1174.5 45.4286
1175.5 16
1176.5 74.7143
1177.5 69.5714
1178.5 60.8571
1179.5 24.1429
1180.5 27.2857
1181.5 77
1182.5 92.8571
1183.5 -21
1184.5 99.5714
1185.5 113.571
1186.5 122.571
1187.5 81.7143
1188.5 27.8571
1189.5 42.1429
1190.5 68.5714
1191.5 112
1192.5 99.1429
1193.5 66.5714
1194.5 60.1429
1195.5 28.1429
1196.5 69.8571
1197.5 5.85714
1198.5 75.5714
1199.5 54.1429
1200.5 3.57142
1201.5 24.8571
1202.5 28.7143
1203.5 48.8571
1204.5 70
1205.5 78
1206.5 56.1429
1207.5 44.4286
1208.5 73
1209.5 43.4286
1210.5 67.4286
1211.5 89.5714
1212.5 47.5714
1213.5 136.429
1214.5 120.143
1215.5 29.7143
1216.5 32.5714
1217.5 64.4286
1218.5 76.1429
1219.5 57.8571
1220.5 36.1429
1221.5 62.8571
1222.5 136
1223.5 25.2857
1224.5 27.2857
1225.5 51
1226.5 17.2857
1227.5 55.7143
1228.5 110.714
1229.5 38.2857
1230.5 119.429
1231.5 38.7143
1232.5 79.4286
1233.5 21.4286
1234.5 107.571
1235.5 13.2857
1236.5 47.4286
1237.5 52.8571
1238.5 39.2857
1239.5 82.4286
1240.5 62
1241.5 61.7143
1242.5 51.2857
1243.5 67.8571
1244.5 -0.71429
1245.5 14.7143
1246.5 26
1247.5 26.4286
1248.5 53
1249.5 80.5714
1250.5 80.2857
1251.5 51.8571
1252.5 58.7143
1253.5 49.1429
1254.5 66.2857
1255.5 152.571
1256.5 40.1429
1257.5 187.857
1258.5 445.143
1259.5 1067.71
1260.5 1528
1261.5 1180.14
1262.5 409.429
1263.5 157.429
1264.5 77.7143
1265.5 105.429
1266.5 37.1429
1267.5 64.5714
1268.5 34.7143
1269.5 13.2857
1270.5 29.5714
1271.5 28.2857
1272.5 71.5714
1273.5 39
1274.5 76
1275.5 86.2857
1276.5 65
1277.5 47.5714
1278.5 25.7143
1279.5 88.4286
1280.5 68.8571
1281.5 26.4286
1282.5 60.4286
1283.5 16.8571
1284.5 70.5714
1285.5 60.4286
1286.5 71.7143
1287.5 56.5714
1288.5 21.4286
1289.5 145.429
1290.5 98
1291.5 60.8571
1292.5 -13.7143
1293.5 80
1294.5 9.71428
1295.5 73.8571
1296.5 33.5714
1297.5 70.5714
1298.5 69.1429
1299.5 85.5714
1300.5 69.7143
1301.5 82.7143
1302.5 4.57142
1303.5 89.5714
1304.5 33.8571
1305.5 59.5714
1306.5 40.7143
1307.5 68
1308.5 45.8571
1309.5 47.4286
1310.5 71.8571
1311.5 55.4286
1312.5 57.7143
1313.5 40
1314.5 42.7143
1315.5 107.857
1316.5 48
1317.5 58.5714
1318.5 36
1319.5 76
1320.5 67.4286
1321.5 35.1429
1322.5 31
1323.5 9
1324.5 46.8571
1325.5 34.1429
1326.5 53.4286
1327.5 -5.85715
1328.5 43.4286
1329.5 22.5714
1330.5 58
1331.5 23
1332.5 -37.2857
1333.5 18.8571
1334.5 63.8571
1335.5 25.7143
1336.5 50.7143
1337.5 42
1338.5 -15.5714
1339.5 70.8571
1340.5 71.2857
1341.5 66.8571
1342.5 56.4286
1343.5 87.2857
1344.5 6.14285
1345.5 49.4286
1346.5 49.4286
1347.5 57.8571
1348.5 0.142853
1349.5 63.1429
1350.5 62
1351.5 58.5714
1352.5 69.4286
1353.5 -42.1429
1354.5 37.1429
1355.5 20.5714
1356.5 60.8571
1357.5 14.1429
1358.5 27.5714
1359.5 68.5714
1360.5 41.2857
1361.5 3.57142
1362.5 38.8571
1363.5 43.5714
1364.5 26.4286
1365.5 77.4286
1366.5 13.2857
1367.5 65.1429
1368.5 48.5714
1369.5 42.7143
1370.5 10
1371.5 52.8571
1372.5 68.2857
1373.5 -19.5714
1374.5 8.71428
1375.5 64.8571
1376.5 65.1429
1377.5 32.4286
1378.5 33.8571
1379.5 41.5714
1380.5 99.5714
1381.5 151.143
1382.5 179.429
1383.5 158.714
1384.5 164.286
1385.5 109.143
1386.5 155.571
1387.5 104.143
1388.5 88
1389.5 88.1429
1390.5 111.714
1391.5 72.5714
1392.5 24.2857
1393.5 37.7143
1394.5 54.4286
1395.5 23.4286
1396.5 68.7143
1397.5 -24.8571
1398.5 82
1399.5 30.7143
1400.5 35.8571
1401.5 36
1402.5 21.7143
1403.5 83.8571
1404.5 93.2857
1405.5 46.4286
1406.5 63.1429
1407.5 41
1408.5 44.8571
1409.5 46.5714
1410.5 33.7143
1411.5 58.5714
1412.5 70.5714
1413.5 65.1429
1414.5 52.1429
1415.5 20.4286
1416.5 61
1417.5 40.5714
1418.5 91.1429
1419.5 34.2857
1420.5 48.8571
1421.5 50
1422.5 38.2857
1423.5 44.7143
1424.5 46.7143
1425.5 62.5714
1426.5 112
1427.5 40
1428.5 56.4286
1429.5 62.1428
1430.5 59.1429
1431.5 42.4286
1432.5 227.143
1433.5 475.857
1434.5 756.429
1435.5 556.429
1436.5 240.571
1437.5 63.4286
1438.5 7.57142
1439.5 59.7143
1440.5 38.4286
1441.5 38.7143
1442.5 41.2857
1443.5 26.1429
1444.5 61.1429
1445.5 68.1429
