# EGG_ProjY_E476.5(2.5)_B495.5(1.5)_B488.5(1.5)_B527.5(2.5)
# X axis : Energy (keV) [Y axis]
# Y axis : Counts/1 keV
# N Bins : 12000
# X Min : 0
# X Max : 12000
# X value at the center of the bins
0.5 0
1.5 0
2.5 0
3.5 0
4.5 0
5.5 137.182
6.5 122.364
7.5 117.545
8.5 55.5454
9.5 64.3636
10.5 62
11.5 -9.54547
12.5 -99.3637
13.5 -107.636
14.5 -136.545
15.5 -165.727
16.5 -243.091
17.5 -256
18.5 -116.909
19.5 -172.364
20.5 -173.364
21.5 -190.818
22.5 -147.364
23.5 415.182
24.5 1078.82
25.5 1685.73
26.5 2472.45
27.5 3518.73
28.5 4471
29.5 5739.36
30.5 6895.73
31.5 9343.64
32.5 11322.5
33.5 12617.3
34.5 12419.6
35.5 11964.7
36.5 9981.73
37.5 7594
38.5 6182.55
39.5 5036.27
40.5 4420.73
41.5 4671.45
42.5 4993.09
43.5 5308.36
44.5 4721.73
45.5 4481.27
46.5 4461
47.5 4431.91
48.5 4769
49.5 4601.82
50.5 4753.09
51.5 4459.91
52.5 5066.91
53.5 5994.18
54.5 5639.27
55.5 5396
56.5 4991.55
57.5 5268.54
58.5 6223.64
59.5 6376.27
60.5 5350.82
61.5 4731.36
62.5 4491.45
63.5 4554.36
64.5 4605.27
65.5 4783.54
66.5 4955.09
67.5 5062
68.5 4602.09
69.5 4315.82
70.5 4026.45
71.5 3891.09
72.5 4338.91
73.5 5058
74.5 6310.91
75.5 7117.64
76.5 7627.64
77.5 8968
78.5 6092.18
79.5 4721.45
80.5 4068.36
81.5 3818.91
82.5 3458.73
83.5 3937.18
84.5 4034.91
85.5 3879.36
86.5 5103.73
87.5 5905.18
88.5 4968.91
89.5 4563.82
90.5 4155.82
91.5 3782.82
92.5 3796.18
93.5 3656.09
94.5 3803.27
95.5 3795.18
96.5 3557.45
97.5 3645.91
98.5 3289.54
99.5 3449.54
100.5 3327.36
101.5 3514
102.5 3690
103.5 3985.18
104.5 4403.27
105.5 4443.18
106.5 4455.36
107.5 4646
108.5 4470.36
109.5 4467.18
110.5 4133.09
111.5 3982.64
112.5 4560.36
113.5 4191.82
114.5 4289
115.5 4933.64
116.5 4977.18
117.5 5512.36
118.5 5394.45
119.5 5222.64
120.5 4965.45
121.5 4685.36
122.5 4408.54
123.5 4047.54
124.5 4210.18
125.5 4020.09
126.5 4360.18
127.5 4361.36
128.5 4697.64
129.5 3807.09
130.5 4841.82
131.5 4337.09
132.5 4374.36
133.5 4356.18
134.5 4478.54
135.5 4200.91
136.5 4389.27
137.5 4210
138.5 4290.73
139.5 4911.27
140.5 4537.73
141.5 4621.27
142.5 4399.27
143.5 4386.91
144.5 4501.73
145.5 4641.82
146.5 5019
147.5 4471.36
148.5 4798.54
149.5 4883.64
150.5 5811.91
151.5 5765.09
152.5 6179.18
153.5 5569.18
154.5 4961.18
155.5 4693.54
156.5 4629.09
157.5 4522.82
158.5 4847.27
159.5 4896.18
160.5 5397.54
161.5 5186.54
162.5 5360.18
163.5 5081.64
164.5 4667.64
165.5 4954.27
166.5 5909.18
167.5 5877.27
168.5 4402.09
169.5 4518.91
170.5 4798.45
171.5 5183.91
172.5 6263.09
173.5 8731.73
174.5 11248.9
175.5 8770.36
176.5 6159.73
177.5 6513.54
178.5 6322.09
179.5 6542.91
180.5 6810.64
181.5 7034.54
182.5 6914.18
183.5 6058.54
184.5 5473.64
185.5 5783.54
186.5 6742.54
187.5 6987.54
188.5 7371.64
189.5 6374.09
190.5 6658.45
191.5 5768
192.5 5212.64
193.5 4406.91
194.5 4504.18
195.5 4339
196.5 4515.54
197.5 4991.82
198.5 5665.91
199.5 4657.18
200.5 4535.54
201.5 5024.73
202.5 5060
203.5 4973.91
204.5 4959
205.5 4259.82
206.5 4654
207.5 4938.36
208.5 4995.18
209.5 4604.73
210.5 5042.45
211.5 4619.54
212.5 4668.09
213.5 4675.18
214.5 5016.64
215.5 4669.82
216.5 4815.27
217.5 4244.54
218.5 4637.73
219.5 4507.27
220.5 4596.64
221.5 4495.73
222.5 4686
223.5 4602.45
224.5 4654.82
225.5 4470
226.5 4788.54
227.5 4356.27
228.5 4839.18
229.5 4483.27
230.5 3734.64
231.5 2705.91
232.5 2493.18
233.5 1719.27
234.5 2041.91
235.5 2882.18
236.5 3525.45
237.5 4142.82
238.5 4356.27
239.5 4136.82
240.5 3894.09
241.5 4322.27
242.5 4099.45
243.5 4154.82
244.5 4472.91
245.5 4186.82
246.5 4194.36
247.5 4328.09
248.5 4383.82
249.5 4328.54
250.5 4744.54
251.5 4427.36
252.5 4291
253.5 4289.45
254.5 4065.27
255.5 4053.73
256.5 3884.64
257.5 3679.45
258.5 3964.09
259.5 3728.64
260.5 3767.91
261.5 3706.45
262.5 3272.27
263.5 3144
264.5 1946.73
265.5 1723.27
266.5 1932.45
267.5 2696.91
268.5 3429.27
269.5 3208.45
270.5 2857.27
271.5 1804.45
272.5 1652.36
273.5 1949.82
274.5 2832
275.5 3331.18
276.5 3447.54
277.5 3213.18
278.5 3313.18
279.5 2978.18
280.5 4016
281.5 5401
282.5 7849.27
283.5 9679.09
284.5 10089.7
285.5 9892.36
286.5 8281.82
287.5 6121.54
288.5 4279
289.5 3700.54
290.5 3403.09
291.5 3526.91
292.5 3293.82
293.5 3353.64
294.5 3487
295.5 3192.54
296.5 3168.91
297.5 3271.27
298.5 3310.27
299.5 3347.54
300.5 3401.45
301.5 3094.18
302.5 3484
303.5 3183.82
304.5 3690.64
305.5 3442.91
306.5 3798.82
307.5 3432.45
308.5 3727.91
309.5 3796.36
310.5 3584
311.5 3828.36
312.5 3874.18
313.5 3617.82
314.5 3541.73
315.5 3501.64
316.5 2933.09
317.5 2691.82
318.5 2507.27
319.5 2913.54
320.5 2830.73
321.5 3201.73
322.5 3009.18
323.5 3015.91
324.5 3019.36
325.5 3406.09
326.5 3357.82
327.5 3647.64
328.5 3894.18
329.5 4149.82
330.5 4480.09
331.5 4162.82
332.5 3930.45
333.5 3611.64
334.5 3615.91
335.5 2953.64
336.5 3106.82
337.5 2988.82
338.5 2577.64
339.5 2442.64
340.5 2170.27
341.5 2052.45
342.5 1983.82
343.5 2092.09
344.5 2685.36
345.5 2810
346.5 2427.18
347.5 2603.45
348.5 2424.45
349.5 2601.82
350.5 2400.73
351.5 2391.36
352.5 2396
353.5 2562.55
354.5 2800.09
355.5 2859.27
356.5 2685.73
357.5 2536.27
358.5 2829.82
359.5 2723.55
360.5 2834.91
361.5 2487.55
362.5 2642.36
363.5 2710.91
364.5 2395.91
365.5 2733.45
366.5 2554.09
367.5 3295.73
368.5 3367.09
369.5 2840.45
370.5 2401.09
371.5 2215.91
372.5 1953.82
373.5 1763.91
374.5 1862.36
375.5 2016.45
376.5 2329.45
377.5 2134.09
378.5 1993.09
379.5 1672.55
380.5 1582.55
381.5 1686.36
382.5 1833.55
383.5 2016.73
384.5 2295.82
385.5 2333.27
386.5 2430.64
387.5 2302.73
388.5 2722.36
389.5 3074.36
390.5 3756.91
391.5 4334.27
392.5 4254.27
393.5 4349.27
394.5 4073
395.5 3138.55
396.5 2773.09
397.5 2280.45
398.5 2763.36
399.5 3268.64
400.5 3180.45
401.5 3518.55
402.5 4409.36
403.5 6126.54
404.5 6394.18
405.5 3707
406.5 2327.27
407.5 2497
408.5 2414.09
409.5 2474.82
410.5 2257.55
411.5 2455.09
412.5 2364.91
413.5 2064.18
414.5 2062.91
415.5 2042.36
416.5 2096.27
417.5 2415.18
418.5 2637.91
419.5 2422.27
420.5 2599.36
421.5 2254.64
422.5 2462.64
423.5 2339.82
424.5 2350.64
425.5 2583.91
426.5 2353.09
427.5 2146.09
428.5 2349.27
429.5 2182.91
430.5 2040.45
431.5 2097
432.5 2264.64
433.5 2140.27
434.5 2128.36
435.5 2353.64
436.5 2349.64
437.5 2068.18
438.5 1994.55
439.5 2110.73
440.5 2520.82
441.5 2479.82
442.5 2289.55
443.5 2713.09
444.5 2642.82
445.5 2693.09
446.5 2694.18
447.5 2364.64
448.5 2424.18
449.5 2456.73
450.5 2388.27
451.5 2466.64
452.5 2683.64
453.5 2362.82
454.5 2288
455.5 2221
456.5 2212.45
457.5 2501.91
458.5 2447.18
459.5 2653.73
460.5 2427.73
461.5 2596.09
462.5 2550.82
463.5 2658.55
464.5 2758.73
465.5 2669.91
466.5 2511.27
467.5 2595.09
468.5 2530
469.5 2830
470.5 3063.09
471.5 3596.64
472.5 4234.27
473.5 4724.73
474.5 5049.09
475.5 5545
476.5 5904.64
477.5 6658.36
478.5 6240.18
479.5 6025.27
480.5 6409.55
481.5 6108.36
482.5 5836.45
483.5 5124.18
484.5 4402.09
485.5 3383.64
486.5 2603.91
487.5 2766.55
488.5 2646.18
489.5 2864
490.5 3126.09
491.5 2864.36
492.5 2676.82
493.5 2455.27
494.5 1921.27
495.5 1939.45
496.5 2029.27
497.5 2120
498.5 2040.36
499.5 2111
500.5 2513
501.5 2266.82
502.5 2363.64
503.5 2386.91
504.5 1811.73
505.5 2121.91
506.5 2894.45
507.5 5035.36
508.5 9131.27
509.5 16490.5
510.5 23672.3
511.5 22236
512.5 14388.7
513.5 6712.73
514.5 3167.91
515.5 2662
516.5 2766.55
517.5 2798.73
518.5 2613.55
519.5 2533.55
520.5 2434.18
521.5 2889
522.5 3498.55
523.5 4161.45
524.5 4553.27
525.5 4603.91
526.5 4134.64
527.5 3184.55
528.5 2243.55
529.5 1864.27
530.5 1840.45
531.5 2026.55
532.5 2253.36
533.5 2126.55
534.5 1972.36
535.5 1638
536.5 1582.55
537.5 1901.55
538.5 2118
539.5 2163
540.5 2201.27
541.5 2001.18
542.5 1813.18
543.5 1195.82
544.5 866.909
545.5 998.818
546.5 987.727
547.5 1221.91
548.5 1745.64
549.5 2296.27
550.5 2184.45
551.5 1966
552.5 1821.09
553.5 1933.36
554.5 2118.73
555.5 2111.91
556.5 1840.36
557.5 1990.18
558.5 2069.09
559.5 1902.27
560.5 1646.36
561.5 1581.55
562.5 1863.55
563.5 1804.09
564.5 1805
565.5 1809.64
566.5 1828.18
567.5 1565.82
568.5 1519.18
569.5 1517.73
570.5 1710.45
571.5 1822.18
572.5 2137.18
573.5 1829.64
574.5 1796.91
575.5 1738.82
576.5 1257.45
577.5 601.909
578.5 727.363
579.5 903.818
580.5 1396.91
581.5 1998.36
582.5 3120.64
583.5 3469.45
584.5 1939.27
585.5 759.636
586.5 817.454
587.5 1327.82
588.5 1513.91
589.5 1568.91
590.5 1637.73
591.5 1562
592.5 1794.45
593.5 2032.45
594.5 2004.18
595.5 1448.45
596.5 -161
597.5 -1358.73
598.5 -1795.64
599.5 -1865.55
600.5 -840.455
601.5 -6.81844
602.5 1049.36
603.5 1413.64
604.5 1727.91
605.5 1672.82
606.5 1687.64
607.5 1579.91
608.5 1554
609.5 1557.55
610.5 1659.45
611.5 1665
612.5 1593.91
613.5 1707.36
614.5 1758.55
615.5 1485
616.5 1739.18
617.5 1904.55
618.5 2093.36
619.5 1926.09
620.5 2011.18
621.5 1921.82
622.5 1818.18
623.5 1445.91
624.5 84.1816
625.5 -2402.18
626.5 -5954.09
627.5 -9126
628.5 -11071.2
629.5 -13280.8
630.5 -12834.5
631.5 -8060.46
632.5 -3033.36
633.5 -606.273
634.5 -877
635.5 -2263.55
636.5 -3364.55
637.5 -2568.18
638.5 -1330.45
639.5 -210.364
640.5 1149.91
641.5 1665.09
642.5 1942
643.5 2426.91
644.5 3730.09
645.5 6602.91
646.5 11660.5
647.5 16264.5
648.5 18833.8
649.5 19077.8
650.5 17961.3
651.5 12541.3
652.5 6856.64
653.5 3463.36
654.5 2936.27
655.5 3534.09
656.5 3121.36
657.5 843.909
658.5 -2037.64
659.5 -5577.82
660.5 -7795
661.5 -7221.82
662.5 -4385.64
663.5 -1495.45
664.5 405
665.5 -992.728
666.5 -5216.27
667.5 -8154.46
668.5 -7692.09
669.5 -4752.55
670.5 -1246.36
671.5 674.182
672.5 1634.73
673.5 2032.91
674.5 2711.91
675.5 4774.91
676.5 10236.3
677.5 19491.1
678.5 27154
679.5 31458.4
680.5 30834.6
681.5 25358.9
682.5 17180.8
683.5 8678.27
684.5 4106.55
685.5 2370.45
686.5 1854.27
687.5 2026.55
688.5 1836.91
689.5 1745.36
690.5 1502
691.5 1349.82
692.5 1459.64
693.5 1153.45
694.5 1180.18
695.5 1364
696.5 1513.73
697.5 1374
698.5 1354
699.5 1187.18
700.5 1435.64
701.5 1329.18
702.5 1294.82
703.5 1682.64
704.5 1614.09
705.5 1629.27
706.5 1774.36
707.5 1793.91
708.5 1874.36
709.5 1604
710.5 1470.18
711.5 1378.64
712.5 1558
713.5 1302.45
714.5 1320.91
715.5 1303.45
716.5 1208.64
717.5 1297.73
718.5 1463.82
719.5 1403.27
720.5 1137.09
721.5 1503.73
722.5 1321.55
723.5 1468.55
724.5 1338.91
725.5 1667.36
726.5 1797.91
727.5 1613.82
728.5 1505.55
729.5 1515.45
730.5 1206.09
731.5 1307.82
732.5 1024
733.5 1182.73
734.5 1237.36
735.5 1110.27
736.5 1426
737.5 1600
738.5 1673.36
739.5 1537
740.5 1433.73
741.5 1399.82
742.5 1401.55
743.5 1371.82
744.5 1162.55
745.5 1363.73
746.5 1356
747.5 1588.64
748.5 1536.82
749.5 1582.82
750.5 1446
751.5 1385.18
752.5 1357.18
753.5 1324.18
754.5 1442.45
755.5 1212.73
756.5 1217.18
757.5 1269.55
758.5 1595.27
759.5 2444.09
760.5 5132.73
761.5 5707.64
762.5 3074.27
763.5 1524.73
764.5 1411.55
765.5 1117.09
766.5 1199.45
767.5 1225.55
768.5 1265.09
769.5 1111.45
770.5 1253.27
771.5 1248.09
772.5 1139.64
773.5 1238.09
774.5 1311.55
775.5 1340.64
776.5 1249.18
777.5 1473.09
778.5 1363.36
779.5 1508.73
780.5 1443.73
781.5 1451.64
782.5 1817
783.5 1483.55
784.5 1860.18
785.5 2040.91
786.5 2031.36
787.5 1833.27
788.5 1900.36
789.5 1730.82
790.5 1385.73
791.5 1470.91
792.5 1242.09
793.5 1265.45
794.5 1305.09
795.5 1202.91
796.5 1356.82
797.5 1281.82
798.5 1320.73
799.5 1297.09
800.5 1427.73
801.5 1260.55
802.5 1295.18
803.5 1264.91
804.5 1525.64
805.5 1703.36
806.5 2293.45
807.5 2352.73
808.5 1597.36
809.5 1360.64
810.5 1317.82
811.5 1357.36
812.5 1436.45
813.5 1516.27
814.5 1698.73
815.5 1612.82
816.5 1811.36
817.5 1498.18
818.5 1436.45
819.5 1452.64
820.5 1390.91
821.5 1451.91
822.5 1695.18
823.5 1627.45
824.5 1292.64
825.5 1288.18
826.5 1277.18
827.5 1366.64
828.5 1351.82
829.5 1299.82
830.5 1491.36
831.5 1598.36
832.5 1459.91
833.5 1641.45
834.5 1543.64
835.5 1440.91
836.5 1627.82
837.5 1336.73
838.5 1579.27
839.5 1411.45
840.5 1386.64
841.5 1397.82
842.5 1335.18
843.5 1340.55
844.5 1050.64
845.5 1426.09
846.5 1503.73
847.5 1386.73
848.5 1271.45
849.5 1505.09
850.5 1359.36
851.5 1617.18
852.5 1362
853.5 1250.27
854.5 1390.55
855.5 1373.64
856.5 1336.91
857.5 1448.18
858.5 1519.82
859.5 1382.36
860.5 1271.91
861.5 1324
862.5 1275.91
863.5 1427.82
864.5 1504.27
865.5 1617.09
866.5 1643.36
867.5 2235.55
868.5 3410.91
869.5 3384.18
870.5 2570.18
871.5 1793.91
872.5 1637.18
873.5 1775.36
874.5 1910.18
875.5 2003.45
876.5 2341.36
877.5 2309.09
878.5 2227.64
879.5 1959.91
880.5 1395.82
881.5 1266
882.5 1422.91
883.5 1477.27
884.5 1393.64
885.5 1349.91
886.5 1516.91
887.5 1622.18
888.5 1502.91
889.5 1410.18
890.5 1331.36
891.5 1462.82
892.5 1487.55
893.5 1477.91
894.5 1638.73
895.5 1492.55
896.5 1796.45
897.5 1720.45
898.5 1582
899.5 1461.64
900.5 1427.64
901.5 1355.73
902.5 1410.64
903.5 1652.36
904.5 1734.64
905.5 1494.45
906.5 1558.82
907.5 1760
908.5 1592.64
909.5 1833
910.5 1804.73
911.5 1749.82
912.5 1795.36
913.5 1571.27
914.5 1607.27
915.5 1318.64
916.5 1607.64
917.5 1706.91
918.5 1607.09
919.5 1626.09
920.5 1586.09
921.5 1623.36
922.5 1484.18
923.5 1600.55
924.5 1668.73
925.5 1428.45
926.5 1570.82
927.5 1495.18
928.5 1570.82
929.5 1588.27
930.5 1339.82
931.5 1257
932.5 1298.64
933.5 1252
934.5 1363.45
935.5 1523
936.5 1599.09
937.5 1442.45
938.5 1554.91
939.5 1478.91
940.5 1685.45
941.5 1556.64
942.5 1649.09
943.5 1908
944.5 1668.09
945.5 1606.27
946.5 1361.36
947.5 1552
948.5 1749.91
949.5 1799.91
950.5 1909.64
951.5 1874.45
952.5 1953.82
953.5 1867.36
954.5 1674.45
955.5 1516.45
956.5 1521.27
957.5 1407.45
958.5 1417.27
959.5 1371.73
960.5 1416.64
961.5 1621.73
962.5 1464.64
963.5 1298.09
964.5 1272.73
965.5 1610.27
966.5 1665.09
967.5 1441.27
968.5 963.818
969.5 847.727
970.5 810.727
971.5 610.818
972.5 720.818
973.5 852.727
974.5 1009
975.5 1248.64
976.5 1272.91
977.5 1143.73
978.5 1193.55
979.5 1037.73
980.5 1303.45
981.5 1435.27
982.5 1985.09
983.5 2221.09
984.5 1829.27
985.5 1533.82
986.5 1456
987.5 1269.27
988.5 1181
989.5 1055.27
990.5 1071.27
991.5 1038
992.5 1260.36
993.5 1121
994.5 1235.82
995.5 1166.09
996.5 1145
997.5 1194.64
998.5 1085.18
999.5 1566.45
1000.5 3624.91
1001.5 6668.09
1002.5 5305.73
1003.5 2240.64
1004.5 902.363
1005.5 881
1006.5 1099.91
1007.5 895.909
1008.5 829.727
1009.5 482.273
1010.5 520.182
1011.5 829.182
1012.5 803.727
1013.5 721.091
1014.5 985.818
1015.5 934.273
1016.5 1218.45
1017.5 1016.55
1018.5 1428.09
1019.5 1686.73
1020.5 1882
1021.5 2388.09
1022.5 2647.18
1023.5 2873.91
1024.5 2963.18
1025.5 2478.64
1026.5 1543.55
1027.5 1091.64
1028.5 955.727
1029.5 1013.91
1030.5 922.273
1031.5 1108.55
1032.5 1128.09
1033.5 1032.64
1034.5 981.364
1035.5 967.909
1036.5 995.273
1037.5 922.727
1038.5 881.182
1039.5 1037.82
1040.5 964.182
1041.5 849.364
1042.5 1019.18
1043.5 818.909
1044.5 987.818
1045.5 900.909
1046.5 865.364
1047.5 928.545
1048.5 908.454
1049.5 1090.18
1050.5 995.182
1051.5 1041.82
1052.5 749.636
1053.5 690.182
1054.5 777.182
1055.5 1073.09
1056.5 1190.45
1057.5 1216
1058.5 867.273
1059.5 890.364
1060.5 895.545
1061.5 980
1062.5 1075.55
1063.5 1021.64
1064.5 1092.36
1065.5 1093.55
1066.5 1045.09
1067.5 772.545
1068.5 879.182
1069.5 774.818
1070.5 1056.18
1071.5 1124.91
1072.5 2362.27
1073.5 5210.09
1074.5 6040.36
1075.5 3474.54
1076.5 1362.27
1077.5 878.727
1078.5 772.454
1079.5 807.091
1080.5 764
1081.5 744.364
1082.5 831.091
1083.5 627.364
1084.5 690.454
1085.5 797.454
1086.5 663.182
1087.5 703.091
1088.5 802.727
1089.5 779.273
1090.5 898.273
1091.5 744.909
1092.5 712.182
1093.5 634.091
1094.5 551.273
1095.5 736.091
1096.5 906.727
1097.5 857
1098.5 848.091
1099.5 857.364
1100.5 676.364
1101.5 733.182
1102.5 640.545
1103.5 237.636
1104.5 73.3635
1105.5 196
1106.5 105.909
1107.5 471.182
1108.5 696.091
1109.5 674.636
1110.5 825.818
1111.5 811.182
1112.5 840.818
1113.5 868.636
1114.5 862
1115.5 635.545
1116.5 643.091
1117.5 633.727
1118.5 712.636
1119.5 756.454
1120.5 900.454
1121.5 904.091
1122.5 1430.55
1123.5 3260
1124.5 10135.9
1125.5 23651.5
1126.5 27535.3
1127.5 12400.6
1128.5 3224
1129.5 1357.27
1130.5 794.545
1131.5 774.364
1132.5 600.182
1133.5 577.909
1134.5 484.636
1135.5 436.727
1136.5 123.364
1137.5 0.363537
1138.5 236.273
1139.5 262.091
1140.5 437.273
1141.5 519.454
1142.5 410.182
1143.5 32.4544
1144.5 98.1817
1145.5 231
1146.5 534
1147.5 919.454
1148.5 1060.36
1149.5 919.454
1150.5 960.636
1151.5 809.364
1152.5 1124.09
1153.5 2850.82
1154.5 8503.64
1155.5 24808.5
1156.5 53680.4
1157.5 54192.6
1158.5 23929.5
1159.5 5964.09
1160.5 1800.82
1161.5 1046.73
1162.5 1040.45
1163.5 1275.82
1164.5 1597.82
1165.5 1480.82
1166.5 954.182
1167.5 861.364
1168.5 755.727
1169.5 834.091
1170.5 911.364
1171.5 1036.55
1172.5 918.454
1173.5 1105.64
1174.5 996.727
1175.5 702.818
1176.5 642.727
1177.5 491
1178.5 514.636
1179.5 567.273
1180.5 756
1181.5 1251.18
1182.5 2297.45
1183.5 2196.27
1184.5 1149.45
1185.5 299.364
1186.5 471.636
1187.5 713
1188.5 477.818
1189.5 517.727
1190.5 577.545
1191.5 573.454
1192.5 488.636
1193.5 722.091
1194.5 537
1195.5 576
1196.5 493.091
1197.5 461.727
1198.5 424.545
1199.5 626.182
1200.5 757.364
1201.5 700.727
1202.5 610.818
1203.5 535
1204.5 463.909
1205.5 464.545
1206.5 630.454
1207.5 536.545
1208.5 521.727
1209.5 574.454
1210.5 467.636
1211.5 598.545
1212.5 550.091
1213.5 541.182
1214.5 477
1215.5 605.273
1216.5 452.364
1217.5 433.273
1218.5 544.909
1219.5 414.454
1220.5 436.545
1221.5 448.091
1222.5 477.909
1223.5 493.454
1224.5 500.909
1225.5 643.091
1226.5 620.454
1227.5 473.818
1228.5 489.364
1229.5 394.909
1230.5 383.091
1231.5 558.091
1232.5 539.909
1233.5 773.636
1234.5 658.818
1235.5 619.818
1236.5 586
1237.5 595.273
1238.5 453.636
1239.5 603.273
1240.5 612.091
1241.5 552.636
1242.5 591.545
1243.5 600.454
1244.5 707.454
1245.5 763.182
1246.5 737.182
1247.5 829.364
1248.5 948.182
1249.5 765.636
1250.5 839
1251.5 677.727
1252.5 458.273
1253.5 485.454
1254.5 400.273
1255.5 482.364
1256.5 532.182
1257.5 515.818
1258.5 588.091
1259.5 634.273
1260.5 982.545
1261.5 928.545
1262.5 791.273
1263.5 724
1264.5 774.727
1265.5 695.182
1266.5 879.545
1267.5 712.545
1268.5 505.909
1269.5 494.182
1270.5 516.909
1271.5 549
1272.5 577.454
1273.5 522.364
1274.5 571.727
1275.5 509.818
1276.5 568
1277.5 607.909
1278.5 511.727
1279.5 352.636
1280.5 388.545
1281.5 317.727
1282.5 476.818
1283.5 373.364
1284.5 280.727
1285.5 513.818
1286.5 327.091
1287.5 458
1288.5 359.454
1289.5 344.545
1290.5 403.727
1291.5 463.818
1292.5 638.091
1293.5 711.545
1294.5 766.273
1295.5 706.364
1296.5 649.727
1297.5 704
1298.5 778.182
1299.5 888.182
1300.5 992.636
1301.5 1063.64
1302.5 1126.82
1303.5 1045.45
1304.5 867.364
1305.5 802.909
1306.5 721.273
1307.5 701.636
1308.5 1088.91
1309.5 968.818
1310.5 815.818
1311.5 638.454
1312.5 514.818
1313.5 553.273
1314.5 618.273
1315.5 552.909
1316.5 553.091
1317.5 432.545
1318.5 480.091
1319.5 479.091
1320.5 586.454
1321.5 443
1322.5 450.091
1323.5 533.727
1324.5 452.454
1325.5 535.454
1326.5 489.091
1327.5 578.818
1328.5 576.818
1329.5 625.273
1330.5 646.636
1331.5 668.545
1332.5 695.364
1333.5 573.273
1334.5 572.273
1335.5 571.636
1336.5 496.091
1337.5 532.454
1338.5 442
1339.5 530
1340.5 422.182
1341.5 346.909
1342.5 354.727
1343.5 451
1344.5 427
1345.5 383.091
1346.5 233.909
1347.5 383.182
1348.5 478.636
1349.5 432.091
1350.5 452.909
1351.5 535
1352.5 565.636
1353.5 753.909
1354.5 534
1355.5 386.909
1356.5 185.818
1357.5 190.182
1358.5 117.182
1359.5 -29.5455
1360.5 85.3636
1361.5 82.8181
1362.5 378
1363.5 512
1364.5 522.545
1365.5 617.273
1366.5 658.091
1367.5 547.818
1368.5 615.545
1369.5 493.636
1370.5 594.545
1371.5 697
1372.5 617.454
1373.5 524.454
1374.5 360.364
1375.5 466.727
1376.5 399.909
1377.5 407.182
1378.5 437.454
1379.5 615.273
1380.5 470.364
1381.5 467.273
1382.5 370.909
1383.5 348.273
1384.5 313.182
1385.5 403.273
1386.5 786.909
1387.5 1130.27
1388.5 791.545
1389.5 347.727
1390.5 223.273
1391.5 374.636
1392.5 486.909
1393.5 764.818
1394.5 832.727
1395.5 911.273
1396.5 846.091
1397.5 665.818
1398.5 515.818
1399.5 403.636
1400.5 365.545
1401.5 541.818
1402.5 504
1403.5 490
1404.5 513.364
1405.5 569.909
1406.5 738.727
1407.5 1028.27
1408.5 1447.64
1409.5 1586.91
1410.5 1594
1411.5 1339.55
1412.5 1102.45
1413.5 729.454
1414.5 451.909
1415.5 364.818
1416.5 429.909
1417.5 432.273
1418.5 467.636
1419.5 426.182
1420.5 550.454
1421.5 579.182
