# EGG_ProjY_E4981.0(11.0)_B4966.0(3.0)_B5054.5(3.5)
# X axis : Energy (keV) [Y axis]
# Y axis : Counts/1 keV
# N Bins : 12000
# X Min : 0
# X Max : 12000
# X value at the center of the bins
0.5 0
1.5 0
2.5 0
3.5 0
4.5 0
5.5 82.1538
6.5 139.154
7.5 37.2308
8.5 42.7692
9.5 100.462
10.5 45.1538
11.5 25
12.5 54.8461
13.5 66.3077
14.5 78.2308
15.5 103.462
16.5 168.692
17.5 269.692
18.5 216.692
19.5 287.923
20.5 289.154
21.5 391.769
22.5 477.462
23.5 463.846
24.5 471
25.5 562.308
26.5 567.692
27.5 707.077
28.5 740.615
29.5 879.077
30.5 974.769
31.5 986
32.5 1029.46
33.5 842.462
34.5 840.846
35.5 865.615
36.5 1082.46
37.5 1189.69
38.5 1096.85
39.5 968.231
40.5 1115.92
41.5 1245.62
42.5 1058
43.5 1030.54
44.5 1197.46
45.5 1112.62
46.5 1199.92
47.5 1139.23
48.5 1101.31
49.5 1313.92
50.5 1388.23
51.5 1303.15
52.5 1097.77
53.5 1040.08
54.5 1220.31
55.5 1338.46
56.5 1351.38
57.5 1316.69
58.5 1618.77
59.5 1749.46
60.5 1494.46
61.5 1185.46
62.5 1285.54
63.5 1165.62
64.5 1189.54
65.5 1273.69
66.5 1356.85
67.5 1471.62
68.5 1271.38
69.5 1504.08
70.5 1437.38
71.5 1370
72.5 1493.46
73.5 1776.69
74.5 2009.54
75.5 2109.15
76.5 2395.54
77.5 2757.15
78.5 1732.69
79.5 1483.92
80.5 1183.31
81.5 1264.46
82.5 1277.77
83.5 1464.08
84.5 1565.62
85.5 1625.62
86.5 1598.92
87.5 2252.54
88.5 1673.38
89.5 1487.08
90.5 1424.38
91.5 1309.15
92.5 1270.46
93.5 1590.85
94.5 1443.62
95.5 1420.92
96.5 1325
97.5 1491.38
98.5 1432.92
99.5 1424.23
100.5 1440.85
101.5 1290.69
102.5 1537.77
103.5 1271.77
104.5 1545.85
105.5 1455.08
106.5 1495.15
107.5 1455.15
108.5 1476.15
109.5 1644.08
110.5 1688.62
111.5 1560.08
112.5 1498.77
113.5 1485.38
114.5 1633.38
115.5 1527.08
116.5 1810.69
117.5 1555.77
118.5 1636.31
119.5 1554.85
120.5 1673
121.5 1788.31
122.5 1505.77
123.5 1564.69
124.5 1551.92
125.5 1695.15
126.5 1584.46
127.5 1661
128.5 1859.92
129.5 1458.85
130.5 1677
131.5 1715.77
132.5 1646.15
133.5 1702.69
134.5 1697.15
135.5 1513.77
136.5 1729.62
137.5 1617.69
138.5 1520.69
139.5 2044.77
140.5 1921.85
141.5 1846.46
142.5 1748.62
143.5 1813.77
144.5 1730.77
145.5 1944.77
146.5 1900.23
147.5 2138.38
148.5 1809.08
149.5 1586.92
150.5 1533.23
151.5 1951.77
152.5 1575.38
153.5 1936.23
154.5 1738
155.5 1872.31
156.5 1820.46
157.5 1959.62
158.5 2146.69
159.5 2133.62
160.5 1780
161.5 1804
162.5 1980.38
163.5 1827.77
164.5 1778.23
165.5 1838
166.5 1746.15
167.5 1808
168.5 1772.08
169.5 1667.62
170.5 2057.77
171.5 2278.31
172.5 2199.77
173.5 2137.31
174.5 2259
175.5 2034.77
176.5 2190
177.5 2344.46
178.5 2384.85
179.5 2440.85
180.5 2208
181.5 2309.69
182.5 2304.92
183.5 2296.15
184.5 2179
185.5 2149.54
186.5 2462.08
187.5 2075.38
188.5 2373.46
189.5 2369.15
190.5 1947.46
191.5 1690.23
192.5 2070
193.5 2077.46
194.5 2156.77
195.5 2094.92
196.5 1997.46
197.5 2162.92
198.5 2281.85
199.5 2091.77
200.5 2285.92
201.5 2459
202.5 2567.38
203.5 2193.54
204.5 2216.77
205.5 2310.08
206.5 2054.62
207.5 2003.77
208.5 2351.08
209.5 2295.77
210.5 2608
211.5 2467.77
212.5 2786.85
213.5 2440.15
214.5 2802.23
215.5 2566.23
216.5 2765.77
217.5 2422.46
218.5 2442.15
219.5 2566.69
220.5 2688.08
221.5 2569.38
222.5 2362.69
223.5 2246.31
224.5 2370.15
225.5 2106.23
226.5 1951.54
227.5 2036.31
228.5 2269.23
229.5 2154.62
230.5 2235
231.5 2291.77
232.5 2330.54
233.5 2184.77
234.5 2348.15
235.5 2346
236.5 2448.92
237.5 2026.46
238.5 2352.54
239.5 2463.92
240.5 2220.31
241.5 2402.38
242.5 2502.31
243.5 2261.85
244.5 2190.69
245.5 2333.92
246.5 2306.92
247.5 2197.46
248.5 2216.85
249.5 2328.23
250.5 2117.85
251.5 2230.31
252.5 2218.15
253.5 2209.38
254.5 1962.69
255.5 1924.69
256.5 1917.46
257.5 1985.38
258.5 1767.62
259.5 2174.62
260.5 1882.69
261.5 1838.62
262.5 1848.92
263.5 1887.62
264.5 1917.77
265.5 1925.31
266.5 1765.62
267.5 1660.46
268.5 1870.54
269.5 2003.38
270.5 1884.23
271.5 1756
272.5 1934.77
273.5 1841.85
274.5 1883.69
275.5 1762.08
276.5 1791.77
277.5 1845.31
278.5 2140.77
279.5 1992.69
280.5 2169.46
281.5 1857
282.5 2074
283.5 2090.54
284.5 2092.92
285.5 2042.77
286.5 2058.62
287.5 1992.15
288.5 2112.69
289.5 2012.38
290.5 2199.92
291.5 1973.69
292.5 1681.23
293.5 1583.23
294.5 1347
295.5 997.692
296.5 1134.69
297.5 1124.15
298.5 1049.54
299.5 1148.23
300.5 1291.69
301.5 1168
302.5 1437.92
303.5 1500.54
304.5 1872.69
305.5 1807.15
306.5 1761.85
307.5 2076.38
308.5 1699.54
309.5 1685.77
310.5 1599.46
311.5 1713.31
312.5 1701.31
313.5 1713.77
314.5 1677.62
315.5 1554.38
316.5 1854.15
317.5 1846.46
318.5 1700.85
319.5 1724.92
320.5 1615.77
321.5 1792.15
322.5 1775.69
323.5 1659.77
324.5 1712.08
325.5 1670.31
326.5 1636.54
327.5 1492.69
328.5 1290.85
329.5 1047
330.5 935.769
331.5 706.308
332.5 560.308
333.5 783.308
334.5 869.769
335.5 755.308
336.5 753.846
337.5 636.538
338.5 699.923
339.5 557.231
340.5 752.538
341.5 548.308
342.5 715.231
343.5 807.769
344.5 1062.69
345.5 1103.77
346.5 1266
347.5 1438.69
348.5 1521.08
349.5 1569
350.5 1382.69
351.5 1488.15
352.5 1365.69
353.5 1452.23
354.5 1604.38
355.5 1452.08
356.5 1490.46
357.5 1546.15
358.5 1467.08
359.5 1581.77
360.5 1659.38
361.5 1473
362.5 1792.23
363.5 1790.69
364.5 1800.23
365.5 1713.77
366.5 1928
367.5 1858.85
368.5 1837.15
369.5 1660.31
370.5 1908.85
371.5 1812.69
372.5 1855.31
373.5 1798
374.5 1748.23
375.5 1872
376.5 1618.54
377.5 1787.15
378.5 1597.08
379.5 1684.31
380.5 1390.85
381.5 1404.85
382.5 1403.46
383.5 1007.46
384.5 1057.92
385.5 759.154
386.5 741.538
387.5 521.077
388.5 523
389.5 625.923
390.5 912.846
391.5 1059.31
392.5 1140.62
393.5 1389.69
394.5 1362.31
395.5 1436.08
396.5 1491.23
397.5 1628
398.5 1516.62
399.5 1556.23
400.5 1781.46
401.5 1744.15
402.5 2571.69
403.5 4135.54
404.5 4390.62
405.5 2673.77
406.5 2222
407.5 2128.62
408.5 1948.77
409.5 2264.69
410.5 2163.23
411.5 2144.69
412.5 2324
413.5 2375.69
414.5 2088.54
415.5 1959.77
416.5 1636.69
417.5 1624.54
418.5 1430
419.5 1231.54
420.5 1070.69
421.5 1008.31
422.5 958.385
423.5 1067.69
424.5 832.615
425.5 844.692
426.5 623.231
427.5 431.308
428.5 376.846
429.5 -47.1539
430.5 101.231
431.5 264.154
432.5 322.846
433.5 412.154
434.5 569.923
435.5 711.769
436.5 784.846
437.5 929.769
438.5 819
439.5 885.538
440.5 1028.23
441.5 1017.23
442.5 945.385
443.5 968.308
444.5 966.154
445.5 989.615
446.5 949.692
447.5 1037.31
448.5 889.769
449.5 854.538
450.5 807.077
451.5 862.923
452.5 922.077
453.5 826.308
454.5 741.615
455.5 627.462
456.5 686.154
457.5 643.769
458.5 592.462
459.5 672.846
460.5 569.462
461.5 682.538
462.5 881.846
463.5 726.923
464.5 815.385
465.5 679.769
466.5 815.385
467.5 754.846
468.5 615.846
469.5 751.231
470.5 949.846
471.5 885.231
472.5 913.385
473.5 1020.23
474.5 938.923
475.5 962.462
476.5 968.385
477.5 996.923
478.5 1164.15
479.5 995.692
480.5 799.231
481.5 927.538
482.5 887.538
483.5 862.308
484.5 860.692
485.5 884.538
486.5 942.692
487.5 892.692
488.5 1062.23
489.5 928.769
490.5 903.923
491.5 959.231
492.5 940.077
493.5 1080.38
494.5 1130.38
495.5 1097
496.5 1025.38
497.5 977.615
498.5 1196.62
499.5 1087.08
500.5 1147.31
501.5 1114.62
502.5 1069.15
503.5 1187.62
504.5 1678.38
505.5 3193.31
506.5 6493.31
507.5 10954.2
508.5 13513.4
509.5 13511.5
510.5 12516.1
511.5 9805.46
512.5 5810
513.5 3043.23
514.5 1819.23
515.5 1973.31
516.5 3176.92
517.5 3248.46
518.5 1624.23
519.5 946.615
520.5 941.923
521.5 787.308
522.5 796.077
523.5 707.923
524.5 780.615
525.5 736.923
526.5 875.308
527.5 837.077
528.5 800.385
529.5 862.231
530.5 816.462
531.5 1021.92
532.5 969.769
533.5 853.692
534.5 1033.15
535.5 907.615
536.5 967.769
537.5 926.615
538.5 818
539.5 897.538
540.5 834.692
541.5 868.923
542.5 827.692
543.5 870.308
544.5 771.385
545.5 672.385
546.5 751.538
547.5 784.538
548.5 818.846
549.5 522.077
550.5 765.769
551.5 722.538
552.5 836.231
553.5 782.308
554.5 805.846
555.5 585.846
556.5 833.154
557.5 836.231
558.5 806.846
559.5 894.692
560.5 887.385
561.5 831.769
562.5 794.923
563.5 747.615
564.5 707.846
565.5 875.538
566.5 723.769
567.5 785.077
568.5 645.846
569.5 767.846
570.5 642
571.5 765.154
572.5 636.462
573.5 634.385
574.5 841.308
575.5 796.077
576.5 756.923
577.5 825.769
578.5 734
579.5 715.154
580.5 863.769
581.5 904.077
582.5 1043.15
583.5 1120.92
584.5 933.385
585.5 870.923
586.5 913.615
587.5 864.538
588.5 819.923
589.5 900.923
590.5 811.154
591.5 734.308
592.5 691.923
593.5 782.769
594.5 728.077
595.5 691.769
596.5 927.077
597.5 861.692
598.5 793.231
599.5 950
600.5 928
601.5 939
602.5 935.462
603.5 836.615
604.5 831.308
605.5 904.615
606.5 901.154
607.5 799.615
608.5 838.308
609.5 774.385
610.5 820.846
611.5 826.923
612.5 814.231
613.5 732.154
614.5 736.692
615.5 671.077
616.5 633.077
617.5 739.462
618.5 703.846
619.5 651.308
620.5 834.231
621.5 826.154
622.5 761.846
623.5 731.769
624.5 819.154
625.5 829.692
626.5 795.769
627.5 964.615
628.5 1296.08
629.5 1025.46
630.5 829.846
631.5 778.692
632.5 744.077
633.5 759.385
634.5 806.615
635.5 791
636.5 1145.69
637.5 1239.54
638.5 1092.77
639.5 901.231
640.5 775.308
641.5 712.615
642.5 843.538
643.5 753.692
644.5 730.769
645.5 791.385
646.5 740.385
647.5 729.692
648.5 750.154
649.5 865.462
650.5 1343.38
651.5 1100.31
652.5 803.308
653.5 761.385
654.5 679
655.5 727.308
656.5 816.154
657.5 712.154
658.5 706.769
659.5 693.692
660.5 667
661.5 695.385
662.5 801.923
663.5 747.385
664.5 742.154
665.5 856.923
666.5 847.231
667.5 736.846
668.5 803.231
669.5 769.615
670.5 632.692
671.5 748.846
672.5 629.538
673.5 820.615
674.5 697.154
675.5 741.769
676.5 744
677.5 655.923
678.5 754.846
679.5 798.385
680.5 675.385
681.5 685.385
682.5 695.308
683.5 737.692
684.5 704.846
685.5 708.385
686.5 719.538
687.5 722.231
688.5 797.385
689.5 690.231
690.5 796.077
691.5 694.692
692.5 707.846
693.5 803.692
694.5 738.923
695.5 722.077
696.5 691.538
697.5 685.385
698.5 660.769
699.5 724.308
700.5 736.385
701.5 667.231
702.5 800.923
703.5 795.846
704.5 783.692
705.5 843.615
706.5 687.308
707.5 698
708.5 745.077
709.5 621.846
710.5 697.923
711.5 740.923
712.5 740.692
713.5 758.462
714.5 790
715.5 771.462
716.5 688.923
717.5 686.154
718.5 636.077
719.5 665.077
720.5 701.846
721.5 733.154
722.5 771
723.5 681.077
724.5 767.385
725.5 765.846
726.5 745.154
727.5 605.538
728.5 683.538
729.5 831.846
730.5 802
731.5 663.923
732.5 713.462
733.5 742.538
734.5 731.923
735.5 750.077
736.5 728
737.5 791.154
738.5 814.615
739.5 561.154
740.5 758.615
741.5 747.308
742.5 785.846
743.5 734.154
744.5 749.385
745.5 792
746.5 668
747.5 847.769
748.5 773.231
749.5 785.538
750.5 674.154
751.5 793.615
752.5 793.923
753.5 786.846
754.5 693.538
755.5 734.385
756.5 797.923
757.5 758.308
758.5 837.923
759.5 1074.31
760.5 1937.62
761.5 1892.31
762.5 1440.38
763.5 861.385
764.5 858.923
765.5 807.385
766.5 816.692
767.5 835.615
768.5 779.769
769.5 855.769
770.5 672.308
771.5 868.846
772.5 718.615
773.5 749.385
774.5 752.462
775.5 865.308
776.5 673.231
777.5 734.538
778.5 781.385
779.5 829.385
780.5 732.462
781.5 870.538
782.5 677.077
783.5 747.462
784.5 973.538
785.5 1425.62
786.5 1611.38
787.5 1662.08
788.5 1658.38
789.5 1104.62
790.5 840.846
791.5 765.385
792.5 850.077
793.5 739.308
794.5 798.923
795.5 798.692
796.5 719.462
797.5 702.154
798.5 832.769
799.5 770.769
800.5 637.385
801.5 791.308
802.5 838.538
803.5 1076.38
804.5 1498.15
805.5 4472.46
806.5 9011.85
807.5 8279.92
808.5 3673.85
809.5 1463.08
810.5 825.846
811.5 778.308
812.5 846.154
813.5 869.769
814.5 765.077
815.5 763.769
816.5 721
817.5 672.769
818.5 841.154
819.5 749.846
820.5 745.462
821.5 879.385
822.5 961.769
823.5 882.385
824.5 802.923
825.5 772.923
826.5 683.231
827.5 753.846
828.5 715.308
829.5 782.692
830.5 723.154
831.5 657.154
832.5 779.077
833.5 846.385
834.5 703.769
835.5 797.538
836.5 724.846
837.5 764.846
838.5 835.308
839.5 667.077
840.5 802.385
841.5 688.077
842.5 792.846
843.5 597.462
844.5 750.308
845.5 575.615
846.5 700
847.5 800.692
848.5 667.846
849.5 814.077
850.5 845.077
851.5 860.846
852.5 877.692
853.5 730
854.5 740.615
855.5 910.692
856.5 1288.77
857.5 1605.46
858.5 1396
859.5 981.308
860.5 885
861.5 846.538
862.5 764.154
863.5 761.615
864.5 826.692
865.5 796.154
866.5 884.385
867.5 859.923
868.5 1106.85
869.5 1143.92
870.5 988.846
871.5 825.692
872.5 813.462
873.5 886.538
874.5 880.231
875.5 872.308
876.5 981.385
877.5 1286.38
878.5 1193
879.5 1019.15
880.5 926.615
881.5 905.231
882.5 1066.92
883.5 1027.08
884.5 1016.85
885.5 887.769
886.5 882.385
887.5 772.154
888.5 869.538
889.5 926.923
890.5 985.077
891.5 955.538
892.5 743.615
893.5 965.385
894.5 979.692
895.5 975.154
896.5 992.538
897.5 950.385
898.5 983.769
899.5 1028.54
900.5 951.385
901.5 1048.69
902.5 1095.77
903.5 1132.15
904.5 991.462
905.5 1144.92
906.5 1177.46
907.5 1146.54
908.5 1195.62
909.5 1189.08
910.5 1205.08
911.5 1103
912.5 1037.77
913.5 1022.77
914.5 1191.92
915.5 1061.15
916.5 1169.31
917.5 1119.92
918.5 1037.69
919.5 1013.31
920.5 887.769
921.5 923
922.5 981.462
923.5 958.692
924.5 1000.46
925.5 883.385
926.5 890.923
927.5 831.077
928.5 868.385
929.5 676.077
930.5 733.231
931.5 901.308
932.5 772.846
933.5 795.846
934.5 834.923
935.5 899.231
936.5 841.154
937.5 1074.69
938.5 858.692
939.5 772.231
940.5 891.615
941.5 848.615
942.5 978.077
943.5 796.308
944.5 856.538
945.5 904.154
946.5 795.769
947.5 705.308
948.5 631.615
949.5 719.538
950.5 655.923
951.5 656.615
952.5 658.462
953.5 795.077
954.5 714.308
955.5 716.615
956.5 637.538
957.5 773.077
958.5 648.846
959.5 640.846
960.5 693.846
961.5 719.769
962.5 658.385
963.5 646.538
964.5 663.615
965.5 697.308
966.5 648.846
967.5 689.077
968.5 661.923
969.5 617.385
970.5 629.846
971.5 629.538
972.5 655.385
973.5 478
974.5 599.308
975.5 606.846
976.5 578
977.5 518.923
978.5 600.769
979.5 611.231
980.5 634.154
981.5 699.769
982.5 685.846
983.5 666.692
984.5 702.231
985.5 509.385
986.5 539.385
987.5 542.308
988.5 574.077
989.5 537.846
990.5 613
991.5 575.462
992.5 623.154
993.5 577.462
994.5 542.846
995.5 581.462
996.5 447.615
997.5 666.538
998.5 880.462
999.5 2071.54
1000.5 6029.54
1001.5 11933.3
1002.5 10675.2
1003.5 4352.92
1004.5 1242.62
1005.5 510.615
1006.5 559.462
1007.5 509.538
1008.5 520.923
1009.5 653.769
1010.5 563.462
1011.5 534.615
1012.5 573.231
1013.5 526
1014.5 574
1015.5 768.846
1016.5 1154
1017.5 1115.46
1018.5 749.231
1019.5 584.846
1020.5 490.846
1021.5 467.154
1022.5 544.923
1023.5 666.538
1024.5 798
1025.5 546.385
1026.5 521.769
1027.5 429.077
1028.5 460.077
1029.5 447.769
1030.5 412.692
1031.5 478.385
1032.5 474.462
1033.5 411.538
1034.5 373.538
1035.5 380.846
1036.5 422.231
1037.5 374.231
1038.5 361.231
1039.5 406.769
1040.5 351.538
1041.5 356.231
1042.5 365.692
1043.5 448.538
1044.5 390.154
1045.5 349.923
1046.5 362.846
1047.5 436.385
1048.5 320.846
1049.5 287.538
1050.5 275.462
1051.5 315.846
1052.5 341.462
1053.5 308.538
1054.5 305.692
1055.5 195.462
1056.5 183.769
1057.5 323
1058.5 266.077
1059.5 415.308
1060.5 414.385
1061.5 277.385
1062.5 305.462
1063.5 258.846
1064.5 298.692
1065.5 270.692
1066.5 353.462
1067.5 207.154
1068.5 188.077
1069.5 320.769
1070.5 383.846
1071.5 516.923
1072.5 1226.08
1073.5 2754.62
1074.5 3383.08
1075.5 2113.38
1076.5 733.077
1077.5 378.615
1078.5 260
1079.5 281.692
1080.5 269.615
1081.5 312.538
1082.5 310.154
1083.5 237.692
1084.5 284.615
1085.5 247.923
1086.5 310.231
1087.5 221
1088.5 342.769
1089.5 234
1090.5 340.385
1091.5 243.538
1092.5 348.154
1093.5 359.923
1094.5 339.923
1095.5 227.308
1096.5 255.462
1097.5 331
1098.5 222.154
1099.5 339.308
1100.5 215.692
1101.5 208.692
1102.5 273.385
1103.5 299.231
1104.5 238.462
1105.5 323.769
1106.5 311.615
1107.5 246.077
1108.5 310.231
1109.5 361.154
1110.5 341.615
1111.5 309.385
1112.5 271.538
1113.5 269.077
1114.5 334.769
1115.5 243.846
1116.5 418.615
1117.5 315.923
1118.5 344.538
1119.5 371.615
1120.5 310.846
1121.5 570.462
1122.5 1220.46
1123.5 3861.31
1124.5 12962.9
1125.5 30701.6
1126.5 34511.9
1127.5 15847.6
1128.5 3907.62
1129.5 1223.85
1130.5 1438.23
1131.5 1672.77
1132.5 966.231
1133.5 436.462
1134.5 367.385
1135.5 195.154
1136.5 258.692
1137.5 305.538
1138.5 224.769
1139.5 290.692
1140.5 403.538
1141.5 322.615
1142.5 228.769
1143.5 201.154
1144.5 158.769
1145.5 168.846
1146.5 154.154
1147.5 201.077
1148.5 207.308
1149.5 237.231
1150.5 198.308
1151.5 292.308
1152.5 464.308
1153.5 1510.46
1154.5 4731.15
1155.5 15286.1
1156.5 33170.1
1157.5 34222.5
1158.5 14219.5
1159.5 3126.23
1160.5 657.538
1161.5 312.538
1162.5 341.692
1163.5 565
1164.5 643.769
1165.5 704
1166.5 275.077
1167.5 132.692
1168.5 105.846
1169.5 126.846
1170.5 51.1538
1171.5 107.462
1172.5 117
1173.5 108.077
1174.5 101.923
1175.5 135.538
1176.5 80.3846
1177.5 137.846
1178.5 168.385
1179.5 177.538
1180.5 58.6923
1181.5 64.1538
1182.5 25.8461
1183.5 167.769
1184.5 101.385
1185.5 68.7692
1186.5 167.385
1187.5 35.3846
1188.5 92.0769
1189.5 81.7692
1190.5 131.923
1191.5 50.6923
1192.5 88.5385
1193.5 101.154
1194.5 145.846
1195.5 130.615
1196.5 130
1197.5 148.615
1198.5 110.077
1199.5 123.615
1200.5 136.308
1201.5 122.923
1202.5 131.538
1203.5 121.231
1204.5 104
1205.5 102.923
1206.5 150.462
1207.5 104.769
1208.5 97.6923
1209.5 128.615
1210.5 116.769
1211.5 135.231
1212.5 53.3846
1213.5 84.5385
1214.5 179.846
1215.5 118.923
1216.5 112.538
1217.5 177.077
1218.5 273.769
1219.5 215.692
1220.5 210.692
1221.5 78.2308
1222.5 79.8461
1223.5 145.077
1224.5 385.385
1225.5 775.077
1226.5 773.231
1227.5 393.769
1228.5 201.385
1229.5 137.923
1230.5 134.308
1231.5 70.9231
1232.5 96.3846
1233.5 143.462
1234.5 99
1235.5 124.769
1236.5 125.615
1237.5 107.846
1238.5 80.4615
1239.5 115.385
1240.5 85.9231
1241.5 125
1242.5 201.154
1243.5 203
1244.5 141.231
1245.5 124.462
1246.5 80.5385
1247.5 80.6154
1248.5 84.7692
1249.5 177.462
1250.5 94
1251.5 169.692
1252.5 117.077
1253.5 75.9231
1254.5 64
1255.5 113.077
1256.5 137.692
1257.5 116.923
1258.5 40.7692
1259.5 95.8461
1260.5 119.385
1261.5 113.769
1262.5 117.308
1263.5 113.538
1264.5 105.846
1265.5 68.9231
1266.5 105.385
1267.5 104.692
1268.5 148.385
1269.5 79.9231
1270.5 64.7692
1271.5 143
1272.5 86.6154
1273.5 93.5385
1274.5 28.3846
1275.5 99.3077
1276.5 135.846
1277.5 126.769
1278.5 143.462
1279.5 70
1280.5 118.615
1281.5 168.308
1282.5 104.077
1283.5 92.6154
1284.5 137.308
1285.5 171.231
1286.5 90.1538
1287.5 70.2308
1288.5 157.846
1289.5 114.538
1290.5 73.4615
1291.5 110.385
1292.5 84.4615
1293.5 96.6154
1294.5 82.5385
1295.5 59.3077
1296.5 203.462
1297.5 131.692
1298.5 39.1538
1299.5 159.846
1300.5 95.8462
1301.5 81.2308
1302.5 105.385
1303.5 58.3846
1304.5 134.308
1305.5 63.1538
1306.5 135.692
1307.5 48.3846
1308.5 76.3846
1309.5 90.1538
1310.5 219.615
1311.5 126.231
1312.5 122.846
1313.5 123.615
1314.5 98.6923
1315.5 77.0769
1316.5 107.692
1317.5 105
1318.5 89.8462
1319.5 87.5385
1320.5 68.4615
1321.5 165.462
1322.5 121.385
1323.5 93.5385
1324.5 119.462
1325.5 122.769
1326.5 82.6923
1327.5 158
1328.5 131.923
1329.5 13.4615
1330.5 104.231
1331.5 103.308
1332.5 82.8461
1333.5 140.615
1334.5 135.308
1335.5 102.077
1336.5 116.077
1337.5 94.0769
1338.5 170.385
1339.5 113
1340.5 169.154
1341.5 141.769
1342.5 89.7692
1343.5 142.923
1344.5 118.692
1345.5 90.7692
1346.5 159.231
1347.5 122.308
1348.5 114.462
1349.5 113.769
1350.5 106.385
1351.5 96.3077
1352.5 119.538
1353.5 158.231
1354.5 162.231
1355.5 66.4615
1356.5 56.9231
1357.5 134.385
1358.5 78.8462
1359.5 106
1360.5 93.5385
1361.5 86.3077
1362.5 76.8462
1363.5 75.5385
1364.5 138.846
1365.5 168
1366.5 73.9231
1367.5 47.6154
1368.5 92.9231
1369.5 80.8462
1370.5 80.1538
1371.5 111.615
1372.5 57.8462
1373.5 149.231
1374.5 101.846
1375.5 112.462
1376.5 129.308
1377.5 130.077
1378.5 99.8461
1379.5 62.5385
1380.5 45
1381.5 -28.6154
1382.5 29.3846
1383.5 85.9231
1384.5 99.5385
1385.5 75.5385
1386.5 131.923
1387.5 37.3846
1388.5 -163.077
1389.5 -484.308
1390.5 -445.923
1391.5 -77.2308
1392.5 47.8462
1393.5 46.3077
1394.5 79.7692
1395.5 107.692
1396.5 93.3846
1397.5 104
1398.5 140.308
1399.5 115.538
1400.5 104.462
1401.5 128.923
1402.5 135.923
1403.5 122.769
1404.5 90.6923
1405.5 138.462
1406.5 90.2308
1407.5 136.385
1408.5 67.4615
1409.5 88.6923
1410.5 66.6923
1411.5 97.5385
1412.5 88.9231
1413.5 111.077
1414.5 106.538
1415.5 76.6923
1416.5 119.769
1417.5 159.077
1418.5 141.692
1419.5 128.462
