# EGG_ProjY_E1724.0(3.0)_B1694.0(2.0)_B1747.5(1.5)
# X axis : Energy (keV) [Y axis]
# Y axis : Counts/1 keV
# N Bins : 12000
# X Min : 0
# X Max : 12000
# X value at the center of the bins
0.5 0
1.5 0
2.5 0
3.5 0
4.5 0
5.5 6.28571
6.5 26.4286
7.5 20.7143
8.5 -1.57143
9.5 11.7143
10.5 31.8571
11.5 16
12.5 27.4286
13.5 60.1429
14.5 58.7143
15.5 81.7143
16.5 118.571
17.5 154.857
18.5 208.286
19.5 254.714
20.5 319.714
21.5 522.429
22.5 534.857
23.5 567.429
24.5 764.571
25.5 678.714
26.5 874.857
27.5 1029.43
28.5 1018.43
29.5 1192
30.5 1219.57
31.5 1410.71
32.5 1549.14
33.5 1620.43
34.5 1464.43
35.5 1730
36.5 1698.57
37.5 1765.86
38.5 1818.71
39.5 1939.57
40.5 1961.14
41.5 2193.29
42.5 2074.43
43.5 2177.43
44.5 2127
45.5 2100.71
46.5 2280.57
47.5 2282.86
48.5 2525.57
49.5 2712.29
50.5 2614.14
51.5 2733.14
52.5 2885.14
53.5 3070.86
54.5 3052.29
55.5 3273
56.5 3407.86
57.5 4181.43
58.5 5331.29
59.5 5588.43
60.5 4606.86
61.5 3735.29
62.5 3820.43
63.5 3733.71
64.5 3818.43
65.5 4370
66.5 4621.86
67.5 5086.57
68.5 4509.14
69.5 4303.71
70.5 3877.86
71.5 3338.43
72.5 3708.57
73.5 4464.57
74.5 6618.14
75.5 7552.43
76.5 8610.57
77.5 9298.43
78.5 5151.86
79.5 3448.86
80.5 3117.71
81.5 3195.57
82.5 2899.57
83.5 3052.43
84.5 3283.71
85.5 3637.86
86.5 4991.57
87.5 5568
88.5 4404.43
89.5 4143
90.5 3837.43
91.5 3236.14
92.5 3274.86
93.5 3422
94.5 3270
95.5 3452.29
96.5 3447.71
97.5 3509.29
98.5 3638.43
99.5 3622
100.5 4109.14
101.5 4344.43
102.5 4774.57
103.5 5774.86
104.5 6582
105.5 7127.14
106.5 6933.71
107.5 7072.86
108.5 6731.29
109.5 6601.14
110.5 6348.71
111.5 6152.57
112.5 6055
113.5 5760.86
114.5 5768.57
115.5 5536.29
116.5 5506.57
117.5 5172.43
118.5 5271.57
119.5 4955.29
120.5 5112.86
121.5 4819.43
122.5 4948.43
123.5 4570.14
124.5 4553.71
125.5 4602
126.5 4778.71
127.5 4637
128.5 4861.29
129.5 4958.57
130.5 4998.71
131.5 4789.14
132.5 4900.57
133.5 5014.43
134.5 5085.14
135.5 5065.71
136.5 4894
137.5 4733.71
138.5 4995.14
139.5 5006
140.5 5047
141.5 5139.43
142.5 5565.14
143.5 5503.43
144.5 5972.14
145.5 5982.57
146.5 6459
147.5 6577.57
148.5 6688.43
149.5 6739.14
150.5 6397
151.5 6548.86
152.5 6368.14
153.5 6280.14
154.5 6536.43
155.5 6479.86
156.5 6744.71
157.5 6975.71
158.5 7002.71
159.5 7592.86
160.5 8374.57
161.5 8582.86
162.5 8759.43
163.5 8582.14
164.5 8528.14
165.5 7778.71
166.5 7670.14
167.5 7063.29
168.5 6886.57
169.5 7044.57
170.5 7577.86
171.5 10787.3
172.5 36365.1
173.5 170598
174.5 321521
175.5 136083
176.5 17327.3
177.5 2592.57
178.5 1261.71
179.5 1181.71
180.5 1161.57
181.5 1160.57
182.5 1347
183.5 1398.71
184.5 1482.86
185.5 1509.43
186.5 1312.43
187.5 1536.71
188.5 1298
189.5 1118
190.5 487
191.5 63.5714
192.5 10.5714
193.5 -194.143
194.5 67.8571
195.5 490
196.5 1172.86
197.5 1190.29
198.5 1916.86
199.5 2131.29
200.5 1536.29
201.5 1355.86
202.5 1183.86
203.5 1026.86
204.5 1196.29
205.5 1167.43
206.5 1320.43
207.5 1418
208.5 1466
209.5 1265.71
210.5 1535.29
211.5 1464.43
212.5 1221.57
213.5 1447.71
214.5 1603.29
215.5 1979.43
216.5 2295
217.5 2415.57
218.5 2194.29
219.5 2357.57
220.5 1883.14
221.5 1952
222.5 1656.57
223.5 1608.57
224.5 1459
225.5 1809.71
226.5 1759.43
227.5 1457.14
228.5 1629.43
229.5 1558.71
230.5 1494.14
231.5 1325.71
232.5 1542.57
233.5 1562.43
234.5 1550
235.5 1699.71
236.5 1611.86
237.5 1580.43
238.5 1383.14
239.5 1354.29
240.5 1494.86
241.5 1154.14
242.5 1157.71
243.5 1429.43
244.5 893.143
245.5 664.857
246.5 467
247.5 443
248.5 511.571
249.5 667.714
250.5 918.714
251.5 1068
252.5 1295.71
253.5 1139.29
254.5 878.286
255.5 919.857
256.5 1044
257.5 1111.86
258.5 1306.43
259.5 1250.14
260.5 1033.57
261.5 1474.57
262.5 1169.43
263.5 938
264.5 964.429
265.5 1098.43
266.5 1211.86
267.5 1249.43
268.5 1499.14
269.5 1475.57
270.5 1399.43
271.5 1487.71
272.5 1281.71
273.5 1472.29
274.5 1320.57
275.5 1160.86
276.5 1408.14
277.5 1338
278.5 1060
279.5 1382.71
280.5 1165.71
281.5 1314.14
282.5 996.429
283.5 1155.14
284.5 1193
285.5 1082.86
286.5 1113
287.5 1038
288.5 1017.86
289.5 1175.14
290.5 1101.43
291.5 1218.43
292.5 1148.86
293.5 1255
294.5 1283.57
295.5 1259.71
296.5 1022.71
297.5 1085.14
298.5 1005
299.5 866.714
300.5 857.714
301.5 958.714
302.5 947.714
303.5 1126.43
304.5 1043.71
305.5 1057.29
306.5 825.143
307.5 1124.57
308.5 892.714
309.5 1108.57
310.5 1239.43
311.5 1070.29
312.5 980.571
313.5 899.286
314.5 849.714
315.5 732.714
316.5 1126
317.5 1261.71
318.5 1034.29
319.5 1142
320.5 1026
321.5 1110.71
322.5 1096.71
323.5 1242.71
324.5 984.429
325.5 1210.57
326.5 950
327.5 1139.29
328.5 1067.43
329.5 1242
330.5 1324.43
331.5 1125.14
332.5 1172.43
333.5 1130.14
334.5 1118.57
335.5 1071
336.5 888.286
337.5 812.429
338.5 810.714
339.5 683
340.5 797.571
341.5 840.143
342.5 965.286
343.5 957.571
344.5 966.286
345.5 856.714
346.5 1076.14
347.5 2646.71
348.5 8994.29
349.5 14660.6
350.5 7474.14
351.5 2034
352.5 863.143
353.5 646.429
354.5 648.143
355.5 628.714
356.5 666.857
357.5 785.286
358.5 621.714
359.5 683.429
360.5 801.571
361.5 903.286
362.5 993.286
363.5 919.143
364.5 1098.86
365.5 966.143
366.5 887.429
367.5 840.429
368.5 768.143
369.5 978.571
370.5 940.714
371.5 878.857
372.5 893
373.5 1029.14
374.5 1075.29
375.5 983
376.5 879
377.5 822.571
378.5 796.143
379.5 821
380.5 691.714
381.5 753.857
382.5 643.143
383.5 710.571
384.5 803.429
385.5 744.571
386.5 953
387.5 835.429
388.5 712.571
389.5 781.714
390.5 570.143
391.5 625
392.5 452.286
393.5 433.143
394.5 242.571
395.5 301.571
396.5 226.714
397.5 409.857
398.5 357
399.5 253.286
400.5 -40.1429
401.5 -337.714
402.5 -744.143
403.5 -478.572
404.5 -317.714
405.5 247.857
406.5 404.714
407.5 558.429
408.5 637.714
409.5 550.143
410.5 846.857
411.5 705.857
412.5 678
413.5 584.286
414.5 704.429
415.5 790.286
416.5 892
417.5 1083.86
418.5 1071.29
419.5 1174.71
420.5 1119.29
421.5 1285.43
422.5 1524.43
423.5 1900.71
424.5 2355.43
425.5 2491.71
426.5 2431.57
427.5 2367.14
428.5 1820
429.5 1376.14
430.5 894.143
431.5 870.286
432.5 631.857
433.5 685.857
434.5 589
435.5 668.857
436.5 706
437.5 610.571
438.5 517.286
439.5 543.714
440.5 553.286
441.5 539.714
442.5 561.429
443.5 544.571
444.5 517.286
445.5 502
446.5 355.286
447.5 304
448.5 215
449.5 196.857
450.5 58.7143
451.5 170.143
452.5 -2.28574
453.5 -131.857
454.5 -436.714
455.5 -462.286
456.5 -341.429
457.5 -105.286
458.5 107.714
459.5 438.714
460.5 726.714
461.5 665.571
462.5 610.429
463.5 709.143
464.5 590.286
465.5 654.429
466.5 651.714
467.5 631.286
468.5 651.143
469.5 640.857
470.5 688.286
471.5 229.143
472.5 -84.7143
473.5 -802.571
474.5 -1393.57
475.5 -1277.57
476.5 -745.143
477.5 278.714
478.5 599
479.5 897.286
480.5 912.714
481.5 819.571
482.5 791.857
483.5 760.714
484.5 656.714
485.5 680.714
486.5 545.857
487.5 684.857
488.5 679
489.5 605
490.5 633
491.5 973.571
492.5 1403.57
493.5 1562.57
494.5 1985.57
495.5 2887.29
496.5 3803.57
497.5 4662.57
498.5 4934.71
499.5 4622.43
500.5 3755.86
501.5 2836.57
502.5 1639
503.5 889
504.5 576.714
505.5 549
506.5 898
507.5 1661.14
508.5 3619
509.5 6917.14
510.5 9742.29
511.5 9547.57
512.5 6285
513.5 3018.43
514.5 1368.29
515.5 741.857
516.5 594.857
517.5 677.714
518.5 400.143
519.5 362.143
520.5 429.143
521.5 431
522.5 524.286
523.5 420.429
524.5 212.714
525.5 -492
526.5 -1232.43
527.5 -2005.86
528.5 -2079.86
529.5 -1786.14
530.5 -1086.57
531.5 -496.286
532.5 -56.7143
533.5 287.714
534.5 267.143
535.5 434.429
536.5 440.286
537.5 317
538.5 503.857
539.5 387.571
540.5 436.286
541.5 442.286
542.5 370.143
543.5 372.286
544.5 471.143
545.5 444.857
546.5 315.857
547.5 379.429
548.5 314
549.5 412.429
550.5 307.429
551.5 323.143
552.5 297
553.5 507
554.5 395.714
555.5 492.143
556.5 457
557.5 467
558.5 447.143
559.5 395.286
560.5 355.857
561.5 353.429
562.5 388.429
563.5 449.714
564.5 370.857
565.5 378.429
566.5 481.429
567.5 469.857
568.5 409.571
569.5 446.714
570.5 460.286
571.5 367.857
572.5 548.571
573.5 446.143
574.5 512.429
575.5 604
576.5 680
577.5 428.143
578.5 478.286
579.5 487
580.5 466.143
581.5 367.571
582.5 365.857
583.5 348.714
584.5 355.714
585.5 371
586.5 389.714
587.5 373.286
588.5 391.143
589.5 408.857
590.5 425.143
591.5 377.857
592.5 474
593.5 310
594.5 454.143
595.5 337.714
596.5 358.857
597.5 449.286
598.5 325.857
599.5 276
600.5 316.571
601.5 359.857
602.5 342.429
603.5 229.571
604.5 308.429
605.5 273.857
606.5 327
607.5 371.429
608.5 457.429
609.5 393.286
610.5 319
611.5 301.429
612.5 306.429
613.5 391.714
614.5 359.143
615.5 401.143
616.5 360.857
617.5 355.143
618.5 375.714
619.5 406.714
620.5 449.857
621.5 220.714
622.5 292.714
623.5 442.143
624.5 475.143
625.5 511.429
626.5 317.286
627.5 257.286
628.5 379.857
629.5 336.857
630.5 347.286
631.5 388.714
632.5 376
633.5 394.714
634.5 356.857
635.5 398.143
636.5 401.857
637.5 589.143
638.5 568.429
639.5 351.571
640.5 368.286
641.5 326.571
642.5 429.857
643.5 324.857
644.5 344.571
645.5 280
646.5 388.286
647.5 450.571
648.5 386
649.5 466.429
650.5 406.286
651.5 467.429
652.5 504.714
653.5 531.571
654.5 332.571
655.5 291.286
656.5 425.857
657.5 327.143
658.5 393.429
659.5 303.143
660.5 327.857
661.5 296.857
662.5 314.714
663.5 408
664.5 333.286
665.5 368.429
666.5 260.429
667.5 402.571
668.5 383.429
669.5 393.571
670.5 345.286
671.5 311.429
672.5 348.571
673.5 328.857
674.5 332
675.5 412.143
676.5 303
677.5 359.143
678.5 382
679.5 369.857
680.5 393.714
681.5 297.429
682.5 350.286
683.5 473.429
684.5 415.571
685.5 476.429
686.5 392.143
687.5 349.286
688.5 322.143
689.5 288.571
690.5 401.857
691.5 384.571
692.5 431.714
693.5 446.857
694.5 360.714
695.5 351.714
696.5 313.143
697.5 303.571
698.5 332.857
699.5 378.571
700.5 429.429
701.5 359.429
702.5 276.429
703.5 374.143
704.5 302.286
705.5 342.571
706.5 419.143
707.5 366.286
708.5 411.429
709.5 411
710.5 347.714
711.5 338.286
712.5 331.714
713.5 305.286
714.5 411.286
715.5 339.429
716.5 290
717.5 329.571
718.5 313.429
719.5 282.286
720.5 306.714
721.5 341.143
722.5 330.286
723.5 334.286
724.5 289.571
725.5 366
726.5 462.714
727.5 407.143
728.5 198.714
729.5 284.429
730.5 380.857
731.5 353.429
732.5 343.286
733.5 351.714
734.5 380.571
735.5 230.143
736.5 412
737.5 370.429
738.5 294.143
739.5 314.714
740.5 344.143
741.5 285.714
742.5 396
743.5 399.429
744.5 400.429
745.5 375.714
746.5 401.143
747.5 270.143
748.5 400
749.5 396.857
750.5 389.429
751.5 293.286
752.5 351.429
753.5 367.429
754.5 307.143
755.5 424.714
756.5 315
757.5 251.286
758.5 378.571
759.5 511.429
760.5 645.143
761.5 759
762.5 460.429
763.5 287.571
764.5 509.857
765.5 201.143
766.5 351.286
767.5 396.429
768.5 227.429
769.5 232
770.5 291.857
771.5 255
772.5 315.857
773.5 250.857
774.5 297.857
775.5 297.286
776.5 370.286
777.5 349.286
778.5 383.571
779.5 238.714
780.5 426.143
781.5 302.571
782.5 285
783.5 359.571
784.5 425.143
785.5 372.714
786.5 380
787.5 369.429
788.5 403
789.5 341.714
790.5 432
791.5 399.286
792.5 415.571
793.5 457.429
794.5 402.857
795.5 417.286
796.5 438.571
797.5 463.286
798.5 350.714
799.5 370.143
800.5 368.571
801.5 336
802.5 365.714
803.5 364.143
804.5 337.571
805.5 494.857
806.5 438.571
807.5 493
808.5 368.571
809.5 362
810.5 426.286
811.5 285.143
812.5 424.429
813.5 218.286
814.5 296.571
815.5 333
816.5 399.857
817.5 319.571
818.5 331
819.5 344.429
820.5 296.429
821.5 235.286
822.5 345.286
823.5 281.286
824.5 292.571
825.5 284.286
826.5 304
827.5 336.286
828.5 244.571
829.5 273.429
830.5 339.286
831.5 302.143
832.5 349.571
833.5 305.714
834.5 377.286
835.5 231.286
836.5 323.286
837.5 392.714
838.5 287.429
839.5 297.429
840.5 279.857
841.5 373.571
842.5 369.429
843.5 363.429
844.5 315.429
845.5 344.714
846.5 271.857
847.5 388.571
848.5 315.429
849.5 454.857
850.5 277.143
851.5 269.286
852.5 487.143
853.5 419.143
854.5 337.857
855.5 325.429
856.5 322.571
857.5 337.429
858.5 336.286
859.5 486.286
860.5 347.857
861.5 323
862.5 299.429
863.5 320.714
864.5 389.571
865.5 356.286
866.5 353.571
867.5 269.143
868.5 311.571
869.5 246.714
870.5 382.429
871.5 497
872.5 355.286
873.5 317.571
874.5 329.429
875.5 421.286
876.5 541.429
877.5 655.429
878.5 522.571
879.5 483.429
880.5 362.143
881.5 412.857
882.5 397.143
883.5 267.286
884.5 347.429
885.5 435.429
886.5 392.429
887.5 516.571
888.5 392.571
889.5 448.714
890.5 455.571
891.5 456.286
892.5 338.429
893.5 544.143
894.5 521.857
895.5 459.286
896.5 307.571
897.5 276.429
898.5 327.571
899.5 364.714
900.5 351.286
901.5 402.857
902.5 350.714
903.5 413.143
904.5 408.857
905.5 387.143
906.5 434.714
907.5 361.286
908.5 315.143
909.5 431.857
910.5 382.429
911.5 381.857
912.5 479
913.5 324.286
914.5 300.429
915.5 436.286
916.5 464.429
917.5 335.857
918.5 328.286
919.5 316.429
920.5 407
921.5 432.571
922.5 344.571
923.5 314.857
924.5 356.286
925.5 282.857
926.5 329.286
927.5 423.429
928.5 470.286
929.5 363.429
930.5 351.857
931.5 278.714
932.5 395.143
933.5 378
934.5 367.571
935.5 521.143
936.5 482.429
937.5 409.143
938.5 369.571
939.5 463.143
940.5 532.286
941.5 676
942.5 627
943.5 521.571
944.5 369.571
945.5 404.143
946.5 353.286
947.5 388.143
948.5 312.857
949.5 253.143
950.5 297.143
951.5 396.143
952.5 313.571
953.5 372.429
954.5 265
955.5 354.714
956.5 324
957.5 373.286
958.5 188.714
959.5 309.286
960.5 293
961.5 404
962.5 455.286
963.5 302.571
964.5 364
965.5 432.429
966.5 404.429
967.5 495
968.5 266.857
969.5 249.429
970.5 281.143
971.5 243.143
972.5 311.714
973.5 248
974.5 253.714
975.5 186.143
976.5 183.714
977.5 218.857
978.5 197.857
979.5 252.714
980.5 287.429
981.5 303.857
982.5 291.571
983.5 204.429
984.5 325
985.5 247.571
986.5 233
987.5 293.714
988.5 344.571
989.5 282.286
990.5 366
991.5 322.857
992.5 360.429
993.5 311.429
994.5 399
995.5 317.143
996.5 256.714
997.5 382
998.5 303.429
999.5 362.714
1000.5 465.143
1001.5 654.429
1002.5 523.571
1003.5 473.286
1004.5 317.429
1005.5 323
1006.5 232
1007.5 302.286
1008.5 317.286
1009.5 287.857
1010.5 217.857
1011.5 326.429
1012.5 329.286
1013.5 307.143
1014.5 358.857
1015.5 268.286
1016.5 259.143
1017.5 216.143
1018.5 214.571
1019.5 244.571
1020.5 251.286
1021.5 225.429
1022.5 209.429
1023.5 359.286
1024.5 380.143
1025.5 437.571
1026.5 359.571
1027.5 361.429
1028.5 239.286
1029.5 259.857
1030.5 204.571
1031.5 243.857
1032.5 204.857
1033.5 229.286
1034.5 255.857
1035.5 186
1036.5 280.429
1037.5 246
1038.5 126.143
1039.5 227.286
1040.5 249.714
1041.5 187
1042.5 325.286
1043.5 244.429
1044.5 240.143
1045.5 255.286
1046.5 257.571
1047.5 209
1048.5 231.286
1049.5 217.571
1050.5 271.286
1051.5 281.571
1052.5 214
1053.5 231.429
1054.5 192.143
1055.5 284
1056.5 242.571
1057.5 266
1058.5 182.429
1059.5 248.429
1060.5 181.143
1061.5 184
1062.5 197.429
1063.5 208.429
1064.5 138.286
1065.5 164.714
1066.5 249.714
1067.5 237.714
1068.5 194.286
1069.5 246.429
1070.5 248.857
1071.5 208
1072.5 316.286
1073.5 509.143
1074.5 597.571
1075.5 333.429
1076.5 337.571
1077.5 154.429
1078.5 267
1079.5 184.714
1080.5 196.571
1081.5 219.571
1082.5 218.286
1083.5 199.714
1084.5 241.857
1085.5 172.571
1086.5 200.143
1087.5 254.286
1088.5 226
1089.5 206.714
1090.5 160.714
1091.5 201
1092.5 217.571
1093.5 223.143
1094.5 195.714
1095.5 148
1096.5 199.571
1097.5 149.143
1098.5 156.286
1099.5 286.857
1100.5 219
1101.5 271
1102.5 282.714
1103.5 254.857
1104.5 208.857
1105.5 208.714
1106.5 208.857
1107.5 225
1108.5 275.143
1109.5 263.286
1110.5 213.571
1111.5 246.714
1112.5 228.286
1113.5 219.857
1114.5 189
1115.5 152.714
1116.5 250
1117.5 219.429
1118.5 282.571
1119.5 259.714
1120.5 249
1121.5 331.571
1122.5 448.143
1123.5 1178.86
1124.5 3840.29
1125.5 8644.57
1126.5 9475.29
1127.5 4161.86
1128.5 1046.43
1129.5 308.143
1130.5 145.286
1131.5 180.571
1132.5 203.286
1133.5 201.286
1134.5 230.143
1135.5 199.857
1136.5 230.429
1137.5 252.857
1138.5 207
1139.5 194
1140.5 202.286
1141.5 192
1142.5 150.571
1143.5 193.714
1144.5 163.571
1145.5 165.714
1146.5 217.143
1147.5 194.714
1148.5 173.571
1149.5 147.143
1150.5 154.571
1151.5 174.143
1152.5 260.857
1153.5 392.571
1154.5 1746.14
1155.5 5101.43
1156.5 10421.4
1157.5 10531.9
1158.5 4544.71
1159.5 1077.71
1160.5 282.143
1161.5 197
1162.5 157.286
1163.5 123.571
1164.5 157.571
1165.5 199.286
1166.5 270.857
1167.5 605.714
1168.5 1451.14
1169.5 1902.14
1170.5 1220.86
1171.5 430.571
1172.5 175.286
1173.5 149.714
1174.5 170.857
1175.5 170.571
1176.5 208.857
1177.5 216.286
1178.5 167.286
1179.5 123.286
1180.5 170.714
1181.5 186
1182.5 174.286
1183.5 164.857
1184.5 187.286
1185.5 190
1186.5 123.714
1187.5 148.857
1188.5 180.143
1189.5 132.143
1190.5 57.8571
1191.5 160.143
1192.5 184
1193.5 144.857
1194.5 163.286
1195.5 130.429
1196.5 137.857
1197.5 77.4286
1198.5 126.429
1199.5 181.714
1200.5 72
1201.5 119.857
1202.5 180.143
1203.5 189.714
1204.5 120
1205.5 125.286
1206.5 241.286
1207.5 97.4286
1208.5 126.286
1209.5 132.714
1210.5 153
1211.5 84.1429
1212.5 105.286
1213.5 139.571
1214.5 137.286
1215.5 149
1216.5 119.571
1217.5 171
1218.5 174.857
1219.5 223.429
1220.5 267.714
1221.5 177
1222.5 260.571
1223.5 192.714
1224.5 177
1225.5 132.286
1226.5 97.5714
1227.5 132.286
1228.5 74.2857
1229.5 165.143
1230.5 164.429
1231.5 172.429
1232.5 174.714
1233.5 156.286
1234.5 140.857
1235.5 136.714
1236.5 135
1237.5 161.286
1238.5 117.857
1239.5 161.286
1240.5 168
1241.5 155.286
1242.5 150.286
1243.5 124.286
1244.5 180.714
1245.5 96.5714
1246.5 170.286
1247.5 137.857
1248.5 148.714
1249.5 139.143
1250.5 127.857
1251.5 97
1252.5 110.143
1253.5 129
1254.5 66.1429
1255.5 136.429
1256.5 130.714
1257.5 141.714
1258.5 138.286
1259.5 181.857
1260.5 127.286
1261.5 124.714
1262.5 131.286
1263.5 194.857
1264.5 137.429
1265.5 154.143
1266.5 136
1267.5 63.1429
1268.5 147.857
1269.5 165.429
1270.5 120.286
1271.5 197.429
1272.5 124.857
1273.5 167.429
1274.5 172.429
1275.5 108.429
1276.5 179.429
1277.5 183.286
1278.5 148.429
1279.5 135.143
1280.5 78.4286
1281.5 177.857
1282.5 193
1283.5 143.286
1284.5 150.857
1285.5 125.571
1286.5 181.143
1287.5 123.286
1288.5 149.286
1289.5 155.571
1290.5 224.857
1291.5 135.571
1292.5 141.286
1293.5 125.571
1294.5 134
1295.5 118.143
1296.5 123.714
1297.5 154.714
1298.5 148.286
1299.5 175.143
1300.5 190.286
1301.5 158.857
1302.5 142.143
1303.5 142.714
1304.5 128.429
1305.5 91.8571
1306.5 62.4286
1307.5 113.286
1308.5 179.714
1309.5 105.714
1310.5 158.714
1311.5 167.714
1312.5 117.857
1313.5 187.429
1314.5 191.429
1315.5 176
1316.5 107.286
1317.5 155.714
1318.5 105.714
1319.5 142.286
1320.5 166.714
1321.5 135.286
1322.5 126.286
1323.5 163.286
1324.5 137.571
1325.5 121.857
1326.5 180.714
1327.5 195.429
1328.5 167
1329.5 226.143
1330.5 271.286
1331.5 286.857
1332.5 111.857
1333.5 132.714
1334.5 109.286
1335.5 129.571
1336.5 117.857
1337.5 135
1338.5 162.714
1339.5 143.714
1340.5 133.714
1341.5 214.429
1342.5 182.714
1343.5 168.571
1344.5 140.571
1345.5 150.714
1346.5 139
1347.5 158.286
1348.5 108.857
1349.5 168.286
1350.5 122.286
1351.5 125.571
1352.5 132.143
1353.5 58.8571
1354.5 91.8571
1355.5 85.1429
1356.5 93.2857
1357.5 100.571
1358.5 84.1429
1359.5 140.857
1360.5 119.143
1361.5 162.857
1362.5 109.429
1363.5 106.143
1364.5 90.4286
1365.5 116.429
1366.5 119.286
1367.5 110.571
1368.5 110.857
1369.5 102
1370.5 175.286
1371.5 120.429
1372.5 142
1373.5 112.714
1374.5 104
1375.5 136
1376.5 136
1377.5 156.857
1378.5 127.571
1379.5 116.429
1380.5 38.4286
1381.5 169.714
1382.5 156
1383.5 105.714
1384.5 157.286
1385.5 149.143
1386.5 155.143
1387.5 184.429
1388.5 186.429
1389.5 127
1390.5 79
1391.5 133.143
1392.5 87.2857
1393.5 176.714
1394.5 106.857
1395.5 148.571
1396.5 127.571
1397.5 181.429
1398.5 130.429
1399.5 129.286
1400.5 104.429
1401.5 115.714
1402.5 124.714
1403.5 112.429
1404.5 141.857
1405.5 129.143
1406.5 66.2857
1407.5 108.143
1408.5 115.857
1409.5 172
1410.5 143.429
1411.5 130.571
1412.5 130.429
1413.5 166
1414.5 165.429
1415.5 120.429
1416.5 176.714
1417.5 156
1418.5 49.4286
1419.5 133.857
1420.5 162.143
1421.5 209
1422.5 97.1429
1423.5 123.429
1424.5 115.857
1425.5 88.2857
1426.5 122.143
1427.5 121.714
1428.5 108.286
1429.5 155.143
1430.5 87.4286
1431.5 98.2857
1432.5 91.2857
1433.5 47.1429
1434.5 176.286
1435.5 122.286
1436.5 122.143
1437.5 171.857
1438.5 85.4286
1439.5 158.857
1440.5 153.857
1441.5 109.286
1442.5 97
1443.5 117.714
1444.5 91.7143
