# EGG_ProjY_E2168.5(4.5)_B2130.0(2.0)_B2206.5(1.5)
# X axis : Energy (keV) [Y axis]
# Y axis : Counts/1 keV
# N Bins : 12000
# X Min : 0
# X Max : 12000
# X value at the center of the bins
0.5 0
1.5 0
2.5 0
3.5 0
4.5 0
5.5 -0.571428
6.5 -24
7.5 9
8.5 -14.1429
9.5 14.1429
10.5 16.5714
11.5 5
12.5 -0.857141
13.5 7.85714
14.5 15.2857
15.5 -32.8571
16.5 -19.8571
17.5 1.42858
18.5 -0.285707
19.5 10.2857
20.5 -4.57142
21.5 22.5714
22.5 -20.5714
23.5 7.14287
24.5 57
25.5 80.4286
26.5 115.857
27.5 1.28574
28.5 44.5715
29.5 213.286
30.5 132.286
31.5 182.714
32.5 40.4286
33.5 -59.7142
34.5 203.714
35.5 121.143
36.5 -48.8571
37.5 34.7143
38.5 268.857
39.5 231.286
40.5 96.7143
41.5 -1.1428
42.5 178
43.5 121.572
44.5 243.857
45.5 234.286
46.5 -47
47.5 213.714
48.5 170.571
49.5 214.571
50.5 362.429
51.5 209.429
52.5 153
53.5 307.857
54.5 364.714
55.5 466.857
56.5 309.429
57.5 18.7143
58.5 462
59.5 206.857
60.5 284
61.5 117.143
62.5 74.4286
63.5 -20
64.5 203.857
65.5 -48.5714
66.5 136.714
67.5 34.5715
68.5 115.857
69.5 -30.9999
70.5 -113.857
71.5 38.8572
72.5 250
73.5 -7.14279
74.5 97.5715
75.5 321
76.5 307.429
77.5 399
78.5 112.857
79.5 122.572
80.5 187.143
81.5 78.1429
82.5 32.8572
83.5 115.714
84.5 87.1429
85.5 -17.9999
86.5 44.7144
87.5 204.429
88.5 -136
89.5 -119.857
90.5 -537.286
91.5 -658
92.5 -886.429
93.5 -623.429
94.5 -300
95.5 -72.7142
96.5 -155.143
97.5 136.286
98.5 54.0001
99.5 257.429
100.5 154.571
101.5 227.143
102.5 170
103.5 81.8572
104.5 139.571
105.5 343.143
106.5 122.571
107.5 280.286
108.5 14.5715
109.5 182.429
110.5 -55.1428
111.5 208
112.5 111
113.5 119.571
114.5 215
115.5 72.4286
116.5 289.857
117.5 -76.1428
118.5 95.2858
119.5 30.8572
120.5 148.286
121.5 126.143
122.5 111.143
123.5 227.714
124.5 200
125.5 112.714
126.5 -92.2856
127.5 277.857
128.5 167.429
129.5 312.286
130.5 278.571
131.5 209.286
132.5 219.143
133.5 311.571
134.5 138.143
135.5 188.571
136.5 -14.8571
137.5 101.429
138.5 -66.7142
139.5 -74.9999
140.5 -47.8571
141.5 133
142.5 196.857
143.5 100.286
144.5 54.7144
145.5 82.1429
146.5 105.572
147.5 161.286
148.5 101.714
149.5 1.42864
150.5 23.1429
151.5 29.0001
152.5 162.572
153.5 157.429
154.5 240.714
155.5 51.1429
156.5 286.572
157.5 305.143
158.5 -56.7142
159.5 20.1429
160.5 101.714
161.5 216.572
162.5 221.143
163.5 345.714
164.5 330.143
165.5 158.429
166.5 -103.428
167.5 53.7144
168.5 -107
169.5 -29.5713
170.5 147.143
171.5 32.1429
172.5 169.857
173.5 121.286
174.5 212.286
175.5 499.429
176.5 305.286
177.5 279
178.5 275.572
179.5 175.429
180.5 358.143
181.5 336.572
182.5 545.143
183.5 303.714
184.5 302.286
185.5 8.71436
186.5 145.286
187.5 286.286
188.5 240.572
189.5 128.572
190.5 227.429
191.5 209.429
192.5 300.572
193.5 121.857
194.5 225
195.5 267.714
196.5 80.7144
197.5 173
198.5 61.7144
199.5 97.0001
200.5 -46.7142
201.5 237.572
202.5 266.857
203.5 66.0001
204.5 -117.571
205.5 178.714
206.5 129.143
207.5 21.7144
208.5 48.8572
209.5 335.429
210.5 186.572
211.5 275.714
212.5 113.286
213.5 84.5715
214.5 166.143
215.5 233.286
216.5 152.572
217.5 134
218.5 -54.2856
219.5 80.8572
220.5 -238.286
221.5 -156.428
222.5 -15.9999
223.5 -63.8571
224.5 -176.143
225.5 92.2858
226.5 -358.714
227.5 102.857
228.5 -100.428
229.5 53.0001
230.5 119.572
231.5 -32.2856
232.5 -7.57136
233.5 103.857
234.5 203.429
235.5 176.714
236.5 209.143
237.5 125
238.5 194.714
239.5 110.572
240.5 102.571
241.5 124
242.5 198.714
243.5 152.571
244.5 82.4286
245.5 -79.1428
246.5 112.143
247.5 190.857
248.5 52.7144
249.5 82.1429
250.5 249.429
251.5 218.429
252.5 59.8572
253.5 56.0001
254.5 165
255.5 362.857
256.5 325.143
257.5 592.857
258.5 264.714
259.5 568.857
260.5 386.429
261.5 301.571
262.5 484.143
263.5 435.143
264.5 406.429
265.5 358.143
266.5 327.143
267.5 363.286
268.5 455.143
269.5 200.857
270.5 426.571
271.5 293.143
272.5 287
273.5 311.143
274.5 286.286
275.5 328
276.5 298.143
277.5 342.714
278.5 255.714
279.5 300.429
280.5 413.286
281.5 143.857
282.5 30.8572
283.5 -42.4285
284.5 -76.9999
285.5 68.5715
286.5 -26.8571
287.5 -28.2857
288.5 -120.571
289.5 53.0001
290.5 172.714
291.5 155.857
292.5 137.857
293.5 100
294.5 -12.1428
295.5 131.714
296.5 -88.9999
297.5 21.0001
298.5 -2.99994
299.5 56.1429
300.5 -27.4285
301.5 -58.9999
302.5 -43.8571
303.5 59.5715
304.5 81.5715
305.5 -18.7142
306.5 -117
307.5 -82.4285
308.5 -97.8571
309.5 -268.857
310.5 -387.143
311.5 -371.714
312.5 -465.571
313.5 -251.857
314.5 -365.857
315.5 -136.429
316.5 -135.571
317.5 101.429
318.5 -63.8571
319.5 80.0001
320.5 -9.57138
321.5 -27.5714
322.5 103.857
323.5 213.429
324.5 277.857
325.5 159.429
326.5 193.143
327.5 263.714
328.5 256.429
329.5 325.429
330.5 424.429
331.5 38.0001
332.5 212.286
333.5 124.714
334.5 225
335.5 221.143
336.5 211.429
337.5 69.2858
338.5 -8.85709
339.5 170.429
340.5 146
341.5 247
342.5 304.286
343.5 120.143
344.5 309.143
345.5 305.857
346.5 605.429
347.5 823.286
348.5 724.429
349.5 696.857
350.5 814.143
351.5 763.429
352.5 766.429
353.5 566.857
354.5 536.571
355.5 438.571
356.5 543.143
357.5 177.143
358.5 226.429
359.5 260.571
360.5 425.857
361.5 373.286
362.5 296.286
363.5 237
364.5 170.714
365.5 55.4286
366.5 62.4286
367.5 -29
368.5 -104.857
369.5 -16.5714
370.5 54.8572
371.5 111.857
372.5 -33.2857
373.5 -14.1428
374.5 -38.5714
375.5 192.143
376.5 143.714
377.5 269.286
378.5 34.8572
379.5 24.1429
380.5 13.7143
381.5 96.8572
382.5 104.714
383.5 -50.2857
384.5 72.5715
385.5 -72.2857
386.5 -426.714
387.5 -418.571
388.5 -438.429
389.5 -250
390.5 -206.571
391.5 3.42861
392.5 71.1429
393.5 -103
394.5 -2.14282
395.5 -48
396.5 -193.286
397.5 -145.429
398.5 -281.571
399.5 -35
400.5 -127.286
401.5 -65.4285
402.5 -184.286
403.5 -450.428
404.5 -583.143
405.5 -5.28566
406.5 -108.429
407.5 155.714
408.5 84
409.5 59.1429
410.5 -88.5714
411.5 -129.286
412.5 -15.8571
413.5 -165.286
414.5 4.85718
415.5 43.7143
416.5 60.7143
417.5 -96.4285
418.5 152.429
419.5 92.4286
420.5 114
421.5 133.143
422.5 85.2857
423.5 81.5715
424.5 226.714
425.5 126.286
426.5 -12.1428
427.5 199.571
428.5 -67.8571
429.5 135
430.5 17.8572
431.5 58.5715
432.5 207.143
433.5 56.5715
434.5 136.571
435.5 208.286
436.5 191.143
437.5 284.857
438.5 241.857
439.5 152.571
440.5 217.857
441.5 182.286
442.5 325.571
443.5 167.857
444.5 100.714
445.5 336
446.5 295.571
447.5 380.429
448.5 301.714
449.5 190.571
450.5 360.714
451.5 194.143
452.5 224.857
453.5 236
454.5 93.5715
455.5 135.143
456.5 -12.4285
457.5 65.1429
458.5 4.57146
459.5 85.5715
460.5 7.4286
461.5 -16.1428
462.5 -3.5714
463.5 98.5715
464.5 127.714
465.5 -15.7143
466.5 8.28575
467.5 230
468.5 209.286
469.5 -7.5714
470.5 59.2857
471.5 103.286
472.5 -14.5714
473.5 -3.28568
474.5 14.8572
475.5 61.7143
476.5 20.2858
477.5 84.8572
478.5 2.42861
479.5 136.429
480.5 -51.1428
481.5 -10.2857
482.5 -81.1428
483.5 115.429
484.5 230.571
485.5 8.57146
486.5 -86
487.5 -0.999967
488.5 -61
489.5 33.1429
490.5 42.2857
491.5 25.7143
492.5 267.714
493.5 141.714
494.5 128.571
495.5 120.571
496.5 157.429
497.5 172.857
498.5 52.2857
499.5 90
500.5 24.8572
501.5 151.286
502.5 185.143
503.5 87.1429
504.5 104
505.5 25.4286
506.5 206.714
507.5 377.429
508.5 663.572
509.5 719
510.5 1183.43
511.5 706.857
512.5 200.572
513.5 -103.286
514.5 -120.143
515.5 1.57146
516.5 -46.8571
517.5 -63
518.5 4.28575
519.5 65.2857
520.5 100.857
521.5 146.143
522.5 5.4286
523.5 -19.4285
524.5 -13.1428
525.5 -126.714
526.5 -99.2857
527.5 -28.2857
528.5 140
529.5 56.8572
530.5 -0.285688
531.5 48.2857
532.5 66.5715
533.5 87
534.5 74.2857
535.5 -30.2857
536.5 75.2857
537.5 -40.4285
538.5 -6.28569
539.5 -10.5714
540.5 28.8572
541.5 96.4286
542.5 73.4286
543.5 118.143
544.5 97.4286
545.5 59.8572
546.5 197.571
547.5 153.571
548.5 272.143
549.5 351.714
550.5 311.857
551.5 356.429
552.5 308.429
553.5 354.714
554.5 297
555.5 316.429
556.5 275
557.5 270.571
558.5 137.429
559.5 94.8572
560.5 178.714
561.5 133
562.5 103.429
563.5 202.429
564.5 129.143
565.5 -37.1428
566.5 167.857
567.5 118.714
568.5 57.1429
569.5 93.7143
570.5 85.7143
571.5 154.286
572.5 70
573.5 141.429
574.5 143
575.5 100.857
576.5 131.143
577.5 59.4286
578.5 85.7143
579.5 -9.5714
580.5 108.714
581.5 36.8572
582.5 128.286
583.5 332.286
584.5 19.2858
585.5 208.857
586.5 75.4286
587.5 86.1429
588.5 -166.857
589.5 -68
590.5 -118.143
591.5 -40.8571
592.5 -72.7143
593.5 -19.8571
594.5 -47.5714
595.5 -33.8571
596.5 -72.8571
597.5 -1.85712
598.5 104.857
599.5 21.1429
600.5 124.143
601.5 0.714308
602.5 56.4286
603.5 -75.4285
604.5 153.571
605.5 78.8572
606.5 -23.5714
607.5 179
608.5 77
609.5 33
610.5 -48.2857
611.5 -22.5714
612.5 64.1429
613.5 93.1429
614.5 95.8572
615.5 107.714
616.5 26
617.5 147.571
618.5 49.2857
619.5 70.1429
620.5 126
621.5 148.143
622.5 -40.8571
623.5 -82.1428
624.5 67.1429
625.5 82.1429
626.5 4.4286
627.5 154.714
628.5 127.857
629.5 199.857
630.5 5.4286
631.5 120.143
632.5 104.286
633.5 38.8572
634.5 88.2857
635.5 -40.2857
636.5 -152.857
637.5 -129.286
638.5 -148.857
639.5 54
640.5 30
641.5 133
642.5 37.7143
643.5 123.571
644.5 -11.8571
645.5 52.7143
646.5 240.286
647.5 105
648.5 -2.28569
649.5 95.8572
650.5 13.7143
651.5 113.857
652.5 126.429
653.5 3.4286
654.5 12.5715
655.5 55.1429
656.5 -14.2857
657.5 166.143
658.5 99.8572
659.5 0.57145
660.5 220.857
661.5 85.5714
662.5 22.7143
663.5 -0.428548
664.5 -16.5714
665.5 3.85717
666.5 75.7143
667.5 50.5715
668.5 71
669.5 88.7143
670.5 144.286
671.5 148.429
672.5 135
673.5 -10.8571
674.5 193.571
675.5 190.286
676.5 106.857
677.5 146.571
678.5 159.429
679.5 194.571
680.5 32.8572
681.5 29.4286
682.5 76.7143
683.5 73.8572
684.5 17.7143
685.5 59.5714
686.5 63.5714
687.5 102.143
688.5 52.8572
689.5 165.429
690.5 130.571
691.5 43.8572
692.5 37
693.5 68.7143
694.5 149.286
695.5 58.4286
696.5 46.8572
697.5 -6.42855
698.5 120.429
699.5 127.143
700.5 62.7143
701.5 47.4286
702.5 37.8572
703.5 91.4286
704.5 173
705.5 37.2857
706.5 161.571
707.5 -3.14284
708.5 39.2857
709.5 82.8572
710.5 -2.57141
711.5 -16.7143
712.5 20.1429
713.5 -92.4286
714.5 -8.71427
715.5 -25.1428
716.5 -76.5714
717.5 -25
718.5 210.571
719.5 106.857
720.5 136.571
721.5 112.286
722.5 192.857
723.5 77.2857
724.5 125.143
725.5 3.85717
726.5 30.4286
727.5 3.85717
728.5 115.714
729.5 162.286
730.5 58
731.5 33.2857
732.5 26.5714
733.5 1.85716
734.5 29.8572
735.5 -60.1428
736.5 45.2857
737.5 -155.857
738.5 2.42859
739.5 -142.857
740.5 -99.7143
741.5 91.4286
742.5 22.2857
743.5 58.2857
744.5 22.8572
745.5 155.429
746.5 195
747.5 122.857
748.5 59.2857
749.5 68.4286
750.5 -15.1428
751.5 120.714
752.5 113.714
753.5 81.2857
754.5 77
755.5 19.2857
756.5 -8.71427
757.5 128.857
758.5 102.429
759.5 313.571
760.5 1113.29
761.5 1019.14
762.5 524.286
763.5 138.143
764.5 94.5714
765.5 169.143
766.5 61.4286
767.5 15.4286
768.5 90.5714
769.5 167
770.5 250
771.5 66.1429
772.5 51.7143
773.5 202.857
774.5 231.286
775.5 270.429
776.5 273.571
777.5 273
778.5 200
779.5 320.429
780.5 119
781.5 198.714
782.5 257.429
783.5 209.143
784.5 46.1429
785.5 208.286
786.5 86.5714
787.5 129.714
788.5 191.429
789.5 21.4286
790.5 164.286
791.5 104.143
792.5 98.1429
793.5 157
794.5 -24.4286
795.5 -24.1428
796.5 71.2857
797.5 49
798.5 -6.14284
799.5 54.4286
800.5 50
801.5 194
802.5 137.143
803.5 103
804.5 37
805.5 -73
806.5 -15.4285
807.5 -99.5714
808.5 -41.1428
809.5 64.5714
810.5 -14.5714
811.5 64.7143
812.5 -16.5714
813.5 -80.5714
814.5 -145.714
815.5 -61.2857
816.5 -53.4286
817.5 -20.2857
818.5 61.7143
819.5 36.1429
820.5 26
821.5 92.7143
822.5 -66.8571
823.5 66
824.5 15.2857
825.5 -42.1428
826.5 110
827.5 48.2857
828.5 40.2857
829.5 -2.71427
830.5 -41.1428
831.5 -52.7143
832.5 47.1429
833.5 28.1429
834.5 59.1429
835.5 215
836.5 134.714
837.5 140.857
838.5 132.571
839.5 105.143
840.5 99
841.5 135.286
842.5 158
843.5 82.7143
844.5 82.8572
845.5 4.42859
846.5 58.5714
847.5 150
848.5 51.7143
849.5 66.2857
850.5 36.8572
851.5 18.4286
852.5 -36.4286
853.5 152.429
854.5 51.7143
855.5 98.5714
856.5 73.1429
857.5 188.857
858.5 -2.14284
859.5 139.571
860.5 45.4286
861.5 44.5714
862.5 148
863.5 125.143
864.5 82.7143
865.5 361.571
866.5 206.286
867.5 348.857
868.5 474
869.5 490.286
870.5 357.286
871.5 220.143
872.5 182.286
873.5 154.714
874.5 94.7143
875.5 3.85717
876.5 -37.5714
877.5 268.571
878.5 138.571
879.5 30.8572
880.5 76.1429
881.5 214.143
882.5 125.857
883.5 100.714
884.5 73.1429
885.5 121.286
886.5 121
887.5 108.143
888.5 130.143
889.5 147
890.5 183.143
891.5 135
892.5 153.571
893.5 92.8572
894.5 42.8572
895.5 56.7143
896.5 54.8572
897.5 122.286
898.5 11.7143
899.5 159.143
900.5 51.4286
901.5 61.1429
902.5 -3.71426
903.5 125.857
904.5 61.4286
905.5 37.7143
906.5 149.143
907.5 22
908.5 37.4286
909.5 116.857
910.5 84.4286
911.5 15
912.5 112.571
913.5 50.4286
914.5 158
915.5 166.714
916.5 226.714
917.5 17
918.5 108.571
919.5 -44.7143
920.5 85.7143
921.5 65.4286
922.5 27.4286
923.5 -27.7143
924.5 88.4286
925.5 182
926.5 148
927.5 0.14288
928.5 21.2857
929.5 161.857
930.5 101.143
931.5 91.4286
932.5 -40
933.5 133.286
934.5 77.2857
935.5 47.8572
936.5 22.2857
937.5 78.1429
938.5 145.429
939.5 128
940.5 228.571
941.5 17.1429
942.5 56.5715
943.5 52
944.5 150.429
945.5 64.7143
946.5 68
947.5 104.571
948.5 -0.571408
949.5 91.1429
950.5 75.8572
951.5 53.4286
952.5 66.7143
953.5 94.4286
954.5 116.857
955.5 150.714
956.5 2.7143
957.5 83.1429
958.5 83
959.5 100.286
960.5 87.1429
961.5 89.1429
962.5 135.143
963.5 91.4286
964.5 95
965.5 249.286
966.5 177.429
967.5 155.857
968.5 194.286
969.5 -6.2857
970.5 51
971.5 91.8572
972.5 186.571
973.5 87
974.5 67.5714
975.5 47.4286
976.5 16
977.5 49.2857
978.5 110.286
979.5 77.1429
980.5 24.1429
981.5 3.7143
982.5 -36.2857
983.5 54.7143
984.5 -0.142836
985.5 57.2857
986.5 68.7143
987.5 97.5714
988.5 -5.42856
989.5 120.286
990.5 -40.8571
991.5 71.1429
992.5 104.286
993.5 98.4286
994.5 73.4286
995.5 54.8572
996.5 146.286
997.5 177.429
998.5 44.2857
999.5 164.714
1000.5 443.429
1001.5 677.714
1002.5 465.429
1003.5 219.857
1004.5 136.429
1005.5 -2.2857
1006.5 13.5714
1007.5 -60.7143
1008.5 -83.8571
1009.5 57
1010.5 58.7143
1011.5 58.2857
1012.5 22.5714
1013.5 -9.71427
1014.5 69
1015.5 28.5714
1016.5 89.5714
1017.5 99.7143
1018.5 22.4286
1019.5 109.286
1020.5 68.8572
1021.5 35.2857
1022.5 114
1023.5 96
1024.5 -38.4285
1025.5 120.286
1026.5 31
1027.5 -45.1428
1028.5 38.7143
1029.5 105.429
1030.5 -47.1428
1031.5 49.2857
1032.5 26.4286
1033.5 65.5714
1034.5 134.286
1035.5 119.143
1036.5 15
1037.5 70.1429
1038.5 171.429
1039.5 -34.1428
1040.5 99.1429
1041.5 45.7143
1042.5 48.5714
1043.5 46
1044.5 13.4286
1045.5 -9.71427
1046.5 -31.7143
1047.5 61.8572
1048.5 -24.7143
1049.5 -165.143
1050.5 -214.143
1051.5 -112.286
1052.5 12.8572
1053.5 108.286
1054.5 -5.2857
1055.5 31.1429
1056.5 -18.2857
1057.5 170
1058.5 45.2857
1059.5 79.7143
1060.5 75.8572
1061.5 21
1062.5 49.5714
1063.5 47
1064.5 89.7143
1065.5 -56
1066.5 42
1067.5 69.8572
1068.5 49.5714
1069.5 24.7143
1070.5 85.8572
1071.5 151.429
1072.5 394.714
1073.5 692.286
1074.5 654.857
1075.5 413.429
1076.5 140.429
1077.5 34.5714
1078.5 53.7143
1079.5 12.7143
1080.5 10.5714
1081.5 36.5714
1082.5 97.5714
1083.5 80.4286
1084.5 8.57144
1085.5 40
1086.5 89.5714
1087.5 27.4286
1088.5 42.8572
1089.5 29.1429
1090.5 59.4286
1091.5 25.4286
1092.5 57.1429
1093.5 8.00001
1094.5 132.429
1095.5 37.2857
1096.5 65.5714
1097.5 50.4286
1098.5 37
1099.5 -78.8571
1100.5 57.5714
1101.5 28.2857
1102.5 45
1103.5 51.7143
1104.5 -1.42856
1105.5 94.8572
1106.5 -37.4286
1107.5 11.5714
1108.5 11
1109.5 -99.4286
1110.5 62.4286
1111.5 30.8572
1112.5 -18
1113.5 -4.57142
1114.5 -37.2857
1115.5 54.8572
1116.5 -60.8571
1117.5 62.2857
1118.5 29.7143
1119.5 -36.1428
1120.5 -48.5714
1121.5 3.00001
1122.5 70
1123.5 240.429
1124.5 1480.57
1125.5 3614.14
1126.5 3423
1127.5 1533.29
1128.5 298.714
1129.5 158.714
1130.5 -12.7143
1131.5 26.5714
1132.5 28.8572
1133.5 40.8572
1134.5 34.1429
1135.5 62.1429
1136.5 -11.8571
1137.5 43.5714
1138.5 -5.42856
1139.5 21.5714
1140.5 43.4286
1141.5 -21.8571
1142.5 38.1429
1143.5 30.7143
1144.5 9.57144
1145.5 42.7143
1146.5 -14.4286
1147.5 70.7143
1148.5 50.7143
1149.5 22.2857
1150.5 25.1429
1151.5 -8.71428
1152.5 65
1153.5 128.714
1154.5 259.714
1155.5 582.858
1156.5 2233
1157.5 3100.29
1158.5 790.429
1159.5 371.429
1160.5 28.8572
1161.5 84.7143
1162.5 61.8572
1163.5 -20.5714
1164.5 37.5714
1165.5 21.4286
1166.5 43
1167.5 25
1168.5 26.2857
1169.5 32.1429
1170.5 3.57144
1171.5 54
1172.5 -8.57142
1173.5 68.7143
1174.5 7.00001
1175.5 45.8571
1176.5 -5.71428
1177.5 35.5714
1178.5 21.1429
1179.5 36.5714
1180.5 -3.71428
1181.5 -94.2857
1182.5 -64.5714
1183.5 -6.71427
1184.5 12.7143
1185.5 60.2857
1186.5 20.8572
1187.5 56.5714
1188.5 33
1189.5 -2.99999
1190.5 -53.8571
1191.5 -64.4286
1192.5 -3.42856
1193.5 -6.14285
1194.5 90.5714
1195.5 55.4286
1196.5 37.8571
1197.5 57
1198.5 22.7143
1199.5 35.4286
1200.5 -19.4286
1201.5 22.2857
1202.5 -33.8571
1203.5 -73.8571
1204.5 47.4286
1205.5 -44.7143
1206.5 79.5714
1207.5 38
1208.5 41.8571
1209.5 47.4286
1210.5 6.00001
1211.5 26.8571
1212.5 -32.7143
1213.5 45.4286
1214.5 64.4286
1215.5 11.7143
1216.5 45.2857
1217.5 102.857
1218.5 34.5714
1219.5 45.4286
1220.5 -6.28571
1221.5 7.71429
1222.5 16.2857
1223.5 -6.57142
1224.5 18.4286
1225.5 53.1429
1226.5 134.143
1227.5 134.429
1228.5 87.5714
1229.5 7.42858
1230.5 53.8572
1231.5 44.4286
1232.5 22
1233.5 -53.7143
1234.5 19.1429
1235.5 21.1429
1236.5 75.7143
1237.5 13
1238.5 22.4286
1239.5 6.71429
1240.5 28.2857
1241.5 20.2857
1242.5 60.2857
1243.5 60.7143
1244.5 57
1245.5 -5.57142
1246.5 12.2857
1247.5 22.5714
1248.5 15.7143
1249.5 14.2857
1250.5 6.14286
1251.5 39.5714
1252.5 52.2857
1253.5 5.42858
1254.5 -24.2857
1255.5 48.1429
1256.5 58.7143
1257.5 -54.7143
1258.5 15.4286
1259.5 15.7143
1260.5 72.4286
1261.5 121.429
1262.5 66.5714
1263.5 -35.5714
1264.5 33.7143
1265.5 50.4286
1266.5 21.7143
1267.5 3.42858
1268.5 -0.714278
1269.5 -4.85714
1270.5 33.7143
1271.5 59.1429
1272.5 29.8571
1273.5 69.7143
1274.5 31
1275.5 54.4286
1276.5 110.571
1277.5 75
1278.5 -0.571421
1279.5 37.2857
1280.5 32
1281.5 119.857
1282.5 42.5714
1283.5 139.714
1284.5 3.00001
1285.5 6.42858
1286.5 53
1287.5 33.2857
1288.5 48.1429
1289.5 -12.1429
1290.5 40
1291.5 30.7143
1292.5 0.571435
1293.5 11.7143
1294.5 22.1429
1295.5 5.00001
1296.5 9.71429
1297.5 21.4286
1298.5 23.7143
1299.5 57
1300.5 21.1429
1301.5 23.5714
1302.5 -17.8571
1303.5 -0.142851
1304.5 4.85715
1305.5 64.2857
1306.5 5.28572
1307.5 50.5714
1308.5 19.1429
1309.5 12.1429
1310.5 -28.1428
1311.5 39.8571
1312.5 82.8571
1313.5 24.1429
1314.5 8.42858
1315.5 33.5714
1316.5 -1.14285
1317.5 41.7143
1318.5 -26.8571
1319.5 -6.14285
1320.5 6.57143
1321.5 17
1322.5 44.7143
1323.5 -0.428564
1324.5 26.1429
1325.5 -20.2857
1326.5 16.2857
1327.5 27.8571
1328.5 -56.7143
1329.5 84.8571
1330.5 130.429
1331.5 39.1429
1332.5 19.1429
1333.5 77.2857
1334.5 20.1429
1335.5 12.2857
1336.5 -29.8571
1337.5 -17.5714
1338.5 50
1339.5 12.8571
1340.5 44.5714
1341.5 59.8571
1342.5 13.4286
1343.5 -5.99999
1344.5 -3.99999
1345.5 22.8571
1346.5 20.5714
1347.5 35.2857
1348.5 -22.7143
1349.5 52.2857
1350.5 -5.57142
1351.5 50.2857
1352.5 -0.285707
1353.5 2.42858
1354.5 -4.14285
1355.5 -20.8571
1356.5 -12.7143
1357.5 39.1429
1358.5 -13
1359.5 82.8571
1360.5 17.8571
1361.5 9.42858
1362.5 25.7143
1363.5 8.71429
1364.5 64.8571
1365.5 0.714292
1366.5 49.1429
1367.5 9.14286
1368.5 1.28572
1369.5 74.1429
1370.5 6.19888e-06
1371.5 -18
1372.5 0.571436
1373.5 8.42858
1374.5 23.8571
1375.5 -21.5714
1376.5 7.57144
1377.5 42.2857
1378.5 -0.142851
1379.5 -2.57142
1380.5 93.1429
1381.5 -37.7143
1382.5 -40.7143
1383.5 -23.2857
1384.5 26.4286
1385.5 35
1386.5 -26.2857
1387.5 2.71429
1388.5 51
1389.5 42.4286
1390.5 98.4286
1391.5 31
1392.5 42.1429
1393.5 -13.1429
1394.5 52
1395.5 -37.4286
1396.5 -21.2857
1397.5 3.28572
1398.5 -8.42857
1399.5 46.8571
1400.5 22.4286
1401.5 37.1429
1402.5 -5.28571
1403.5 -39.4286
1404.5 -0.71428
1405.5 22.5714
1406.5 -11.1429
1407.5 2.42858
1408.5 -46.4286
1409.5 10.7143
1410.5 31.4286
1411.5 14.1429
1412.5 -56.4286
1413.5 21.8571
1414.5 85.1429
1415.5 41.5714
1416.5 38.8571
1417.5 83.5714
1418.5 9.71429
1419.5 73.1429
1420.5 -45.8571
1421.5 75.8571
1422.5 9.42858
1423.5 -8.42857
