# EGG_ProjY_E444.5(2.5)_B452.5(3.5)_B426.5(5.5)_B488.5(2.5)
# X axis : Energy (keV) [Y axis]
# Y axis : Counts/1 keV
# N Bins : 12000
# X Min : 0
# X Max : 12000
# X value at the center of the bins
0.5 0
1.5 0
2.5 0
3.5 0
4.5 0
5.5 -5.04346
6.5 35.1739
7.5 20.2609
8.5 -5.73911
9.5 -21.8695
10.5 2.52175
11.5 -6.30433
12.5 -28.9565
13.5 -70.6521
14.5 -56.1739
15.5 -161.913
16.5 -191.696
17.5 -300
18.5 -366.478
19.5 -374.696
20.5 -642.913
21.5 -762.913
22.5 -736.391
23.5 -743.956
24.5 -431.739
25.5 -414.217
26.5 -212.391
27.5 237
28.5 576.87
29.5 718.522
30.5 887.609
31.5 1040.13
32.5 1205.83
33.5 1266.44
34.5 1443.04
35.5 1431.17
36.5 1368.26
37.5 1533.7
38.5 1251
39.5 1030.44
40.5 937.87
41.5 482.522
42.5 163.566
43.5 258.653
44.5 -42.2168
45.5 57.8267
46.5 -355.912
47.5 -13.2603
48.5 -409.608
49.5 -475.652
50.5 -1062.13
51.5 -1213.04
52.5 -1688.65
53.5 -1983.87
54.5 -2139.35
55.5 -2424.78
56.5 -2894.61
57.5 -1851.43
58.5 -1238.22
59.5 -64.6078
60.5 2155.13
61.5 4044.87
62.5 7403.52
63.5 9962.52
64.5 13165.1
65.5 14493.3
66.5 14183.1
67.5 12760.4
68.5 9380.13
69.5 6170.22
70.5 3814.04
71.5 2012.09
72.5 829.566
73.5 314.696
74.5 339.088
75.5 -137.869
76.5 -261.086
77.5 -1179.74
78.5 -2767.56
79.5 -3801.26
80.5 -4258.83
81.5 -4748.22
82.5 -4976.48
83.5 -4503.87
84.5 -4500
85.5 -4440.35
86.5 -4080.3
87.5 -3487.13
88.5 -2778.17
89.5 -1763.04
90.5 -1373.56
91.5 -827.13
92.5 -195.999
93.5 -49.4342
94.5 153.914
95.5 268.914
96.5 170.261
97.5 442.175
98.5 367.131
99.5 572.044
100.5 597.305
101.5 431.175
102.5 116.044
103.5 600.566
104.5 443.348
105.5 299.175
106.5 149.348
107.5 419.653
108.5 243.566
109.5 553.783
110.5 580.349
111.5 871.479
112.5 581.566
113.5 429.566
114.5 890.392
115.5 573.522
116.5 867.696
117.5 751.175
118.5 790.218
119.5 672.87
120.5 396.827
121.5 410.827
122.5 627.001
123.5 564.088
124.5 577.088
125.5 612.436
126.5 808.088
127.5 599.349
128.5 317.783
129.5 522.175
130.5 192.653
131.5 455.87
132.5 369.131
133.5 243.523
134.5 292.001
135.5 901.87
136.5 1259.87
137.5 1960.26
138.5 2230
139.5 2244.7
140.5 1395.44
141.5 876.696
142.5 769.175
143.5 436.87
144.5 826.262
145.5 417.566
146.5 698.001
147.5 1066.96
148.5 1579.04
149.5 1497.83
150.5 1741.31
151.5 1621.78
152.5 1544.7
153.5 1042.74
154.5 259.349
155.5 389.783
156.5 17.4356
157.5 12.2617
158.5 207.436
159.5 61.1313
160.5 265.566
161.5 444.088
162.5 325.957
163.5 571.74
164.5 549.697
165.5 513.479
166.5 462.958
167.5 492.044
168.5 -151.825
169.5 221.349
170.5 531.436
171.5 86.9574
172.5 -196.043
173.5 -133.999
174.5 -369.346
175.5 -23.1293
176.5 236.74
177.5 855.088
178.5 564.957
179.5 107.523
180.5 746.479
181.5 1860
182.5 2666
183.5 3733.13
184.5 3940.39
185.5 3586.57
186.5 2399.87
187.5 1356.22
188.5 853.088
189.5 1059.78
190.5 1937.83
191.5 2419.26
192.5 2740.44
193.5 2765.44
194.5 2194.39
195.5 1292.17
196.5 467.131
197.5 -452.521
198.5 -603.564
199.5 -688.869
200.5 -510.564
201.5 -316.347
202.5 113.784
203.5 361.784
204.5 979.436
205.5 1612.7
206.5 1813.17
207.5 2065.44
208.5 2344
209.5 2301.09
210.5 2107.52
211.5 1828.74
212.5 1708.7
213.5 1535.7
214.5 441.827
215.5 581.088
216.5 579.957
217.5 821.957
218.5 1302.96
219.5 1526.44
220.5 1616.61
221.5 1226.57
222.5 1018.61
223.5 818.957
224.5 228.827
225.5 -431.782
226.5 -508.434
227.5 -169.521
228.5 -427.347
229.5 -218.738
230.5 138.131
231.5 124.61
232.5 -211.564
233.5 -245.521
234.5 259.436
235.5 -75.5209
236.5 418.914
237.5 217.349
238.5 652.218
239.5 558.696
240.5 449.392
241.5 655.914
242.5 869.827
243.5 669.175
244.5 532.653
245.5 664.566
246.5 661.522
247.5 656.566
248.5 434.696
249.5 588.783
250.5 811.392
251.5 634.349
252.5 650.392
253.5 571.218
254.5 570.914
255.5 679.088
256.5 528.479
257.5 853.74
258.5 705.566
259.5 601.827
260.5 900.305
261.5 618.914
262.5 781.088
263.5 586.262
264.5 1037.78
265.5 640.914
266.5 564.914
267.5 645.088
268.5 188.131
269.5 -62.608
270.5 -420.565
271.5 -1180.56
272.5 -1043.74
273.5 -781.782
274.5 -912.956
275.5 -224.13
276.5 135.262
277.5 515.435
278.5 403.435
279.5 901.957
280.5 964.827
281.5 982.088
282.5 876.131
283.5 1234.57
284.5 791.435
285.5 508.566
286.5 230.088
287.5 419.87
288.5 383.609
289.5 335.044
290.5 711.218
291.5 329.131
292.5 458.218
293.5 615.479
294.5 655.479
295.5 371.131
296.5 642.696
297.5 137.088
298.5 444.827
299.5 527.175
300.5 348.131
301.5 499.609
302.5 452.74
303.5 -73.6951
304.5 33.0006
305.5 -377.217
306.5 -960.608
307.5 -1208.83
308.5 -1325.04
309.5 -987.956
310.5 -417.13
311.5 -78.7385
312.5 638.696
313.5 2595.44
314.5 4785.44
315.5 6299.04
316.5 6426
317.5 6052.26
318.5 4766.74
319.5 2669.26
320.5 1176.48
321.5 507.392
322.5 401.566
323.5 468.261
324.5 362.001
325.5 468.783
326.5 361.435
327.5 89.0006
328.5 -193.912
329.5 -804.086
330.5 -971.782
331.5 -1229.39
332.5 -1235.7
333.5 -1354.3
334.5 -1188.3
335.5 -1244.13
336.5 -1268.22
337.5 -821.086
338.5 -787.521
339.5 -39.8255
340.5 300.653
341.5 993.218
342.5 1615.13
343.5 1086.57
344.5 1008.35
345.5 728.174
346.5 553.392
347.5 580.522
348.5 447.435
349.5 466.914
350.5 368.914
351.5 296.435
352.5 337.044
353.5 -106.043
354.5 119.435
355.5 6.82658
356.5 21.4788
357.5 213.261
358.5 168.044
359.5 666.696
360.5 1009.17
361.5 1061.17
362.5 1167.39
363.5 1373
364.5 716.87
365.5 702.174
366.5 504.218
367.5 487.392
368.5 699.001
369.5 442.131
370.5 545.392
371.5 334.957
372.5 644.435
373.5 378.566
374.5 259.522
375.5 112.305
376.5 -47.8691
377.5 -90.3908
378.5 40.3918
379.5 -143.434
380.5 -725.869
381.5 -256.26
382.5 -112.652
383.5 63.6961
384.5 72.7396
385.5 35.7831
386.5 302.305
387.5 76.87
388.5 199.827
389.5 75.6091
390.5 -44.6952
391.5 279.087
392.5 352.653
393.5 388.653
394.5 527.696
395.5 373
396.5 77.783
397.5 336.174
398.5 383.74
399.5 332.131
400.5 487.74
401.5 829.783
402.5 1181.26
403.5 2238.09
404.5 2292.78
405.5 947.522
406.5 377.348
407.5 323.087
408.5 343.174
409.5 57.4787
410.5 207.174
411.5 188.783
412.5 110.827
413.5 78.1743
414.5 -87.0865
415.5 -183.087
416.5 -212.391
417.5 -36.9996
418.5 -18.6083
419.5 407.74
420.5 408.261
421.5 879.305
422.5 1704.3
423.5 2030.3
424.5 1920.3
425.5 2082
426.5 1447.04
427.5 582.305
428.5 407.305
429.5 681.218
430.5 573.653
431.5 812.435
432.5 1187.91
433.5 1211.7
434.5 1027.39
435.5 851.566
436.5 650.044
437.5 -48.6518
438.5 -108.391
439.5 9.65259
440.5 -345.782
441.5 -236.782
442.5 111.131
443.5 -49.9561
444.5 142.174
445.5 -236.26
446.5 -239.217
447.5 -168.434
448.5 -93.9996
449.5 80.1308
450.5 260.913
451.5 254.435
452.5 385.522
453.5 157.826
454.5 199.131
455.5 388.826
456.5 456.435
457.5 88.3047
458.5 379.087
459.5 600.174
460.5 346.174
461.5 379.218
462.5 249.87
463.5 236.348
464.5 411.174
465.5 412.218
466.5 429.522
467.5 360.609
468.5 398.174
469.5 381.087
470.5 556.74
471.5 411.87
472.5 490.783
473.5 175.174
474.5 247.044
475.5 463.522
476.5 377.174
477.5 645.261
478.5 704.392
479.5 477.74
480.5 597.957
481.5 385.435
482.5 512.435
483.5 328.696
484.5 536.566
485.5 503.826
486.5 378.957
487.5 562
488.5 302.218
489.5 472.174
490.5 365.305
491.5 265.087
492.5 418.218
493.5 220.087
494.5 184.609
495.5 481.522
496.5 429.435
497.5 616.261
498.5 638.174
499.5 619.435
500.5 640.87
501.5 471.218
502.5 436.044
503.5 457.609
504.5 724.74
505.5 294.348
506.5 441.522
507.5 278.088
508.5 839.479
509.5 1173.39
510.5 1533.26
511.5 1494.48
512.5 1341.83
513.5 -91.7383
514.5 -51.3038
515.5 41.6526
516.5 526.957
517.5 319.348
518.5 587.653
519.5 713.087
520.5 835.305
521.5 1202.04
522.5 899.87
523.5 834.435
524.5 370.435
525.5 234.87
526.5 493.087
527.5 266.348
528.5 131.087
529.5 -68.0866
530.5 233.044
531.5 180.696
532.5 232.696
533.5 221.826
534.5 127.652
535.5 72.0438
536.5 223.218
537.5 220.566
538.5 588.566
539.5 529.479
540.5 388.305
541.5 375.087
542.5 186.826
543.5 77.6525
544.5 77.3481
545.5 -157.782
546.5 -319.826
547.5 -484.695
548.5 -146.869
549.5 -372.782
550.5 -470.043
551.5 -24.391
552.5 200.696
553.5 973.348
554.5 1953.74
555.5 2777.44
556.5 3098.96
557.5 3219.61
558.5 2851.39
559.5 1872
560.5 886.174
561.5 418.218
562.5 455.696
563.5 154.131
564.5 355.435
565.5 280.522
566.5 316.392
567.5 -80.6954
568.5 68.7829
569.5 -30.2606
570.5 -303.174
571.5 -607.608
572.5 -488.478
573.5 -564
574.5 -427.608
575.5 -405.608
576.5 -107.608
577.5 77.3047
578.5 158.392
579.5 464.652
580.5 767.609
581.5 470.957
582.5 317.392
583.5 -65.0429
584.5 -412.043
585.5 -481.043
586.5 -455.782
587.5 -356.261
588.5 -178.782
589.5 45.1307
590.5 115.392
591.5 124.305
592.5 116.957
593.5 246.348
594.5 69.3916
595.5 -116.217
596.5 -86.7388
597.5 132.826
598.5 -139.391
599.5 217.913
600.5 -4.78233
601.5 -50.1302
602.5 134.565
603.5 246.261
604.5 350.218
605.5 219.261
606.5 336.739
607.5 436.174
608.5 370.435
609.5 150.392
610.5 518.652
611.5 489.565
612.5 327.261
613.5 524.913
614.5 212.565
615.5 313.609
616.5 -82.9563
617.5 -299.043
618.5 -613.087
619.5 -643.739
620.5 -905.695
621.5 -589.087
622.5 -598.913
623.5 -282.652
624.5 -133.739
625.5 956.957
626.5 2138.48
627.5 3692.17
628.5 4176.04
629.5 4601.44
630.5 3971.78
631.5 2596.57
632.5 1111.35
633.5 -242.043
634.5 -1815.35
635.5 -2760.74
636.5 -3476.7
637.5 -3059.78
638.5 -2578.91
639.5 -1799.09
640.5 -993.956
641.5 -566.826
642.5 -644
643.5 -804.174
644.5 -856.304
645.5 -604
646.5 -741.261
647.5 -806.174
648.5 -506.608
649.5 -232.956
650.5 234.696
651.5 -3.65163
652.5 175.522
653.5 285.348
654.5 489.218
655.5 547.87
656.5 486
657.5 382.087
658.5 297.087
659.5 338.218
660.5 324.131
661.5 383.392
662.5 238.565
663.5 -524.434
664.5 -1611.3
665.5 -3122.3
666.5 -5184.22
667.5 -6381.39
668.5 -6971.48
669.5 -7009.09
670.5 -6243.48
671.5 -5237.35
672.5 -4557.17
673.5 -3942.17
674.5 -3698.7
675.5 -2670.22
676.5 -83.9997
677.5 4516.7
678.5 10737.6
679.5 16091.6
680.5 19190.6
681.5 19319.2
682.5 16547.9
683.5 10890
684.5 5467.04
685.5 2319.7
686.5 774.218
687.5 448.913
688.5 182.174
689.5 270.392
690.5 175.174
691.5 -271.435
692.5 -1057.56
693.5 -2363.78
694.5 -3586.87
695.5 -4353.26
696.5 -4582.61
697.5 -4967.61
698.5 -5565.22
699.5 -6824
700.5 -9020.48
701.5 -10550.3
702.5 -11384.8
703.5 -10834.7
704.5 -9456
705.5 -7411.65
706.5 -4682.56
707.5 120.218
708.5 8647.57
709.5 19664.3
710.5 28790
711.5 33417.8
712.5 33292.9
713.5 27358.2
714.5 17542.5
715.5 8567.87
716.5 3311.57
717.5 1144.91
718.5 552.174
719.5 425.652
720.5 306.957
721.5 85.3046
722.5 -633.652
723.5 -1987.26
724.5 -4455.39
725.5 -6670.35
726.5 -7728.13
727.5 -8665.17
728.5 -8652.65
729.5 -8729.26
730.5 -8923.56
731.5 -8864.17
732.5 -8748.3
733.5 -8167.35
734.5 -6729.35
735.5 -4167.35
736.5 -1648.04
737.5 -445.348
738.5 360.348
739.5 262.826
740.5 250.826
741.5 502.435
742.5 274.087
743.5 235.348
744.5 353.739
745.5 267.305
746.5 197.826
747.5 261.652
748.5 235
749.5 82.0437
750.5 332.305
751.5 228.565
752.5 327.174
753.5 145.392
754.5 219.826
755.5 203.696
756.5 407.218
757.5 157.565
758.5 273.565
759.5 347.783
760.5 816.392
761.5 875.914
762.5 600.827
763.5 261.522
764.5 120.522
765.5 316
766.5 301.783
767.5 239.739
768.5 322.609
769.5 177.392
770.5 106.044
771.5 199.044
772.5 128
773.5 265.435
774.5 271.348
775.5 312.261
776.5 164.522
777.5 362.913
778.5 330.435
779.5 184.826
780.5 448.522
781.5 285.174
782.5 483.957
783.5 391.087
784.5 438.739
785.5 362.957
786.5 278.609
787.5 434
788.5 223.261
789.5 438.565
790.5 427.565
791.5 283.826
792.5 303.957
793.5 298.044
794.5 343.696
795.5 253.783
796.5 276.174
797.5 447
798.5 371.087
799.5 287.522
800.5 251.826
801.5 285
802.5 288.131
803.5 109.261
804.5 223.087
805.5 340.652
806.5 343.566
807.5 359.348
808.5 261.652
809.5 129
810.5 128.609
811.5 367.87
812.5 321.348
813.5 419.174
814.5 617.739
815.5 635.913
816.5 594.783
817.5 769.609
818.5 468.044
819.5 433.087
820.5 341.305
821.5 200.305
822.5 351.565
823.5 195.218
824.5 339.348
825.5 179.305
826.5 201.261
827.5 25.8263
828.5 216.174
829.5 247
830.5 213.348
831.5 440.305
832.5 235.218
833.5 126.218
834.5 302.261
835.5 362.696
836.5 118.652
837.5 258.044
838.5 163.652
839.5 116.783
840.5 396.305
841.5 127.913
842.5 74.1307
843.5 268.348
844.5 275.913
845.5 260.044
846.5 429.087
847.5 545.392
848.5 526.261
849.5 550.826
850.5 546.565
851.5 534.783
852.5 291.696
853.5 243.261
854.5 333.348
855.5 223.305
856.5 190.957
857.5 248.087
858.5 210.435
859.5 73.348
860.5 301.044
861.5 275.261
862.5 289.739
863.5 266
864.5 238.218
865.5 347.435
866.5 221.261
867.5 255.392
868.5 191.827
869.5 250.261
870.5 527.087
871.5 305.305
872.5 237.913
873.5 312.348
874.5 135.652
875.5 402.652
876.5 404.696
877.5 313.435
878.5 422.913
879.5 397.522
880.5 488
881.5 316.522
882.5 295.174
883.5 165.913
884.5 190.131
885.5 294.957
886.5 375.174
887.5 383.087
888.5 234.696
889.5 291.826
890.5 245.044
891.5 248.392
892.5 225
893.5 263.87
894.5 264.609
895.5 358.174
896.5 365.565
897.5 279.696
898.5 266.087
899.5 213.044
900.5 346.305
901.5 234.044
902.5 420.783
903.5 359.392
904.5 290.348
905.5 354.218
906.5 235.522
907.5 215.739
908.5 456.783
909.5 603.305
910.5 346.522
911.5 297.783
912.5 396.174
913.5 328.261
914.5 350.218
915.5 361.218
916.5 344.392
917.5 300
918.5 488.044
919.5 349.87
920.5 392.348
921.5 417.826
922.5 308.696
923.5 356.826
924.5 364.087
925.5 421.739
926.5 258.305
927.5 449.478
928.5 355.739
929.5 559.392
930.5 289.739
931.5 430.261
932.5 301.739
933.5 478.218
934.5 371.218
935.5 334.696
936.5 362.218
937.5 476.392
938.5 125.392
939.5 451.305
940.5 337.696
941.5 402.565
942.5 477.131
943.5 392.131
944.5 607.522
945.5 466.174
946.5 419.392
947.5 281.392
948.5 262.87
949.5 305.044
950.5 348.305
951.5 358.261
952.5 410.783
953.5 213.174
954.5 234.218
955.5 98.0872
956.5 81.7393
957.5 236.218
958.5 193.87
959.5 110.913
960.5 8.8263
961.5 167.348
962.5 193.348
963.5 375.087
964.5 204.783
965.5 10.1307
966.5 79.696
967.5 239.565
968.5 312
969.5 225.348
970.5 313.218
971.5 223.913
972.5 293
973.5 251.391
974.5 252.218
975.5 252.131
976.5 142.348
977.5 -13.7824
978.5 99.6958
979.5 342.044
980.5 391.957
981.5 708.565
982.5 649.696
983.5 778.435
984.5 643.522
985.5 512.739
986.5 449.174
987.5 445.305
988.5 320.609
989.5 273.87
990.5 383.913
991.5 209.87
992.5 165.305
993.5 198.261
994.5 307.609
995.5 199.348
996.5 242.391
997.5 92.8697
998.5 140.392
999.5 297.261
1000.5 1507.74
1001.5 3335.18
1002.5 2905.35
1003.5 1145.44
1004.5 122.87
1005.5 116.478
1006.5 101.087
1007.5 -110.956
1008.5 -43.652
1009.5 -153.869
1010.5 -195.913
1011.5 -154.956
1012.5 201.696
1013.5 43.7393
1014.5 306.305
1015.5 210.218
1016.5 475.305
1017.5 183.087
1018.5 451.435
1019.5 206
1020.5 304.522
1021.5 57.5219
1022.5 141.87
1023.5 299.913
1024.5 470.479
1025.5 119.913
1026.5 118.609
1027.5 77.348
1028.5 160.391
1029.5 182.131
1030.5 26.8697
1031.5 87.6958
1032.5 155.391
1033.5 121.131
1034.5 236.131
1035.5 179
1036.5 146.435
1037.5 254.652
1038.5 183
1039.5 186.218
1040.5 200.435
1041.5 14.4349
1042.5 -122.913
1043.5 -64.8694
1044.5 -144.043
1045.5 -234.435
1046.5 -148.956
1047.5 11.0001
1048.5 75.3045
1049.5 59.2176
1050.5 351.305
1051.5 673
1052.5 1109.96
1053.5 1496.26
1054.5 1699.17
1055.5 1520.43
1056.5 1173.22
1057.5 733.174
1058.5 441.783
1059.5 104.174
1060.5 142.565
1061.5 33.7393
1062.5 220
1063.5 184.261
1064.5 198.131
1065.5 204.913
1066.5 -4.78247
1067.5 138.478
1068.5 -275.478
1069.5 -264.869
1070.5 -198.565
1071.5 -153.826
1072.5 68.0439
1073.5 115.262
1074.5 -174.825
1075.5 68.9572
1076.5 -103.478
1077.5 -112.652
1078.5 55.4784
1079.5 -2.69553
1080.5 32.8697
1081.5 151.739
1082.5 166.87
1083.5 -0.565097
1084.5 50.1306
1085.5 -116.087
1086.5 -36.1303
1087.5 -55.3042
1088.5 -51.0868
1089.5 21.3045
1090.5 54.7393
1091.5 270.174
1092.5 338.087
1093.5 684.522
1094.5 471.826
1095.5 328.783
1096.5 405.652
1097.5 411.609
1098.5 213.131
1099.5 202.913
1100.5 53.5653
1101.5 117.044
1102.5 199.044
1103.5 123.261
1104.5 172.87
1105.5 228.826
1106.5 73.8697
1107.5 133.609
1108.5 114.783
1109.5 36.6523
1110.5 -35.4781
1111.5 -20.7825
1112.5 93.3479
1113.5 21.7393
1114.5 128.435
1115.5 25.6088
1116.5 75.1306
1117.5 93.8262
1118.5 6.91317
1119.5 121.131
1120.5 190.826
1121.5 173.609
1122.5 347.913
1123.5 1019.57
1124.5 3662.83
1125.5 9928.31
1126.5 11341.9
1127.5 4755.44
1128.5 1368.3
1129.5 306.609
1130.5 268.522
1131.5 90.4349
1132.5 179.261
1133.5 201.044
1134.5 113.391
1135.5 115.348
1136.5 69.8262
1137.5 -35.6521
1138.5 -27.826
1139.5 17.174
1140.5 130.522
1141.5 45.261
1142.5 -37.1303
1143.5 -121.261
1144.5 -182.869
1145.5 -143.956
1146.5 -161.174
1147.5 -54.9564
1148.5 -94.2607
1149.5 19.5219
1150.5 70.4784
1151.5 63.5653
1152.5 202.218
1153.5 308.739
1154.5 1393.44
1155.5 5601.66
1156.5 10389.1
1157.5 12790.7
1158.5 5167.92
1159.5 804.914
1160.5 78.9567
1161.5 124.391
1162.5 47.4784
1163.5 -48.2607
1164.5 236.087
1165.5 42.1741
1166.5 28.5653
1167.5 75.7392
1168.5 -82.3043
1169.5 -55.4782
1170.5 -40.6956
1171.5 92.6957
1172.5 58.261
1173.5 37.261
1174.5 228.826
1175.5 15.174
1176.5 -66.3912
1177.5 10.8262
1178.5 -203
1179.5 -265.609
1180.5 -303.261
1181.5 -250.609
1182.5 137.609
1183.5 167.348
1184.5 543.131
1185.5 753.435
1186.5 1595.83
1187.5 2030.52
1188.5 2254.7
1189.5 2300.17
1190.5 1714.13
1191.5 998
1192.5 616.87
1193.5 265.391
1194.5 309.174
1195.5 378.783
1196.5 533.783
1197.5 386.044
1198.5 128.087
1199.5 13.6523
1200.5 64.5218
1201.5 -14.9999
1202.5 50.5218
1203.5 -65.7825
1204.5 -181.435
1205.5 -264.696
1206.5 -462.869
1207.5 -536.304
1208.5 -517.696
1209.5 -649.043
1210.5 -528.783
1211.5 -568.391
1212.5 -149.783
1213.5 -87.3477
1214.5 -35.1738
1215.5 -110.261
1216.5 -91.4782
1217.5 -68.4347
1218.5 -146.304
1219.5 -161.348
1220.5 -26.0434
1221.5 -48.6086
1222.5 -105.217
1223.5 -129.956
1224.5 -51.8695
1225.5 -32.4347
1226.5 -3.99989
1227.5 7.26098
1228.5 31.0871
1229.5 111.87
1230.5 93.087
1231.5 3.73921
1232.5 53.087
1233.5 -28.8695
1234.5 49.3479
1235.5 62.6523
1236.5 -45.5217
1237.5 95.3044
1238.5 -35.3043
1239.5 4.73921
1240.5 89.0001
1241.5 102.739
1242.5 57.6523
1243.5 123.174
1244.5 109.087
1245.5 99.5653
1246.5 0.304429
1247.5 -30.8695
1248.5 44.3914
1249.5 71.5653
1250.5 68.1305
1251.5 -9.69557
1252.5 49.4349
1253.5 39.8696
1254.5 82.1305
1255.5 64.2609
1256.5 -36.0434
1257.5 6.34791
1258.5 35.7392
1259.5 36.4784
1260.5 1.69577
1261.5 124.957
1262.5 49.7827
1263.5 50.5653
1264.5 306.913
1265.5 341
1266.5 286.478
1267.5 247.391
1268.5 240.261
1269.5 274.174
1270.5 -19.739
1271.5 77.8696
1272.5 22.8696
1273.5 50.6088
1274.5 13.3044
1275.5 -2.99991
1276.5 52.261
1277.5 191.391
1278.5 364.609
1279.5 475.913
1280.5 473.174
1281.5 582.696
1282.5 436.131
1283.5 313.565
1284.5 179.913
1285.5 49.0001
1286.5 -28.0434
1287.5 -100.783
1288.5 -226.522
1289.5 -193.913
1290.5 -104.13
1291.5 -60.7825
1292.5 -23.9129
1293.5 -71.6086
1294.5 -59.1738
1295.5 16.7392
1296.5 -69.7825
1297.5 -148.261
1298.5 -69.6521
1299.5 30.8262
1300.5 -25.3043
1301.5 -146.217
1302.5 -90.8695
1303.5 -46.3912
1304.5 13.0001
1305.5 47.2175
1306.5 103.609
1307.5 38.174
1308.5 128.783
1309.5 27.261
1310.5 104.957
1311.5 134.217
1312.5 45.1305
1313.5 63.3044
1314.5 18.8697
1315.5 53.9566
1316.5 13.5653
1317.5 -8.4347
1318.5 68.174
1319.5 99.6088
1320.5 32.5218
1321.5 13.7392
1322.5 -27.9999
1323.5 -33.3043
1324.5 9.86965
1325.5 -146.869
1326.5 127.696
1327.5 32.3914
1328.5 163.522
1329.5 137.783
1330.5 183.131
1331.5 458.217
1332.5 499.565
1333.5 605.739
1334.5 635.131
1335.5 471
1336.5 334.174
1337.5 393.826
1338.5 141.87
1339.5 78.3044
1340.5 3.26094
1341.5 100.783
1342.5 16.5653
1343.5 81.087
1344.5 37.3479
1345.5 90.4349
1346.5 -9.73905
1347.5 -56.6086
1348.5 -82.1738
1349.5 -19.5651
1350.5 -258.565
1351.5 -181.826
1352.5 -210.696
1353.5 -200.696
1354.5 -216.435
1355.5 -191.522
1356.5 -158.739
1357.5 -125.087
1358.5 -30.3043
1359.5 -55.0869
1360.5 68.3479
1361.5 91.0436
1362.5 109.348
1363.5 297.826
1364.5 398.478
1365.5 542.261
1366.5 483.652
1367.5 277.913
1368.5 149.435
1369.5 48.7392
1370.5 85.5653
1371.5 138.217
1372.5 -21.2173
1373.5 206.739
1374.5 161.565
1375.5 257.087
1376.5 81.7392
1377.5 111.087
1378.5 140.435
1379.5 125.609
1380.5 12.3479
1381.5 -219.174
1382.5 -173.522
1383.5 -164
1384.5 -130.217
1385.5 -36.6956
1386.5 -29.0868
1387.5 165.348
1388.5 -16.9999
1389.5 110.044
