# EGG_ProjY_E5841.5(6.5)_B5806.5(3.5)_B5852.5(3.5)
# X axis : Energy (keV) [Y axis]
# Y axis : Counts/1 keV
# N Bins : 12000
# X Min : 0
# X Max : 12000
# X value at the center of the bins
0.5 0
1.5 0
2.5 0
3.5 0
4.5 0
5.5 15
6.5 23.7857
7.5 59.2857
8.5 2.64286
9.5 5.92857
10.5 35.3571
11.5 31.2857
12.5 22.7143
13.5 27.7143
14.5 20.7857
15.5 46.3571
16.5 93.7143
17.5 43.8572
18.5 22.5714
19.5 93.5
20.5 72.2143
21.5 120.214
22.5 81.0714
23.5 181.643
24.5 149.571
25.5 180.643
26.5 206.143
27.5 272
28.5 271
29.5 361.571
30.5 363.929
31.5 332.929
32.5 337.286
33.5 430
34.5 391.714
35.5 395.786
36.5 489.643
37.5 380.643
38.5 375
39.5 406.714
40.5 341.857
41.5 430.429
42.5 473.5
43.5 397.5
44.5 352.571
45.5 353.143
46.5 432.929
47.5 461.143
48.5 507.571
49.5 450.357
50.5 527.286
51.5 434.786
52.5 511.857
53.5 444.929
54.5 525.643
55.5 505.214
56.5 612.286
57.5 678.786
58.5 667.357
59.5 829.286
60.5 696.357
61.5 540.5
62.5 488.286
63.5 524.714
64.5 546.286
65.5 622.786
66.5 615.5
67.5 734.071
68.5 598.571
69.5 677.643
70.5 565.429
71.5 527.286
72.5 432.286
73.5 748.857
74.5 882.286
75.5 1026.57
76.5 1044.36
77.5 1230.57
78.5 712.286
79.5 521.071
80.5 478.143
81.5 618.143
82.5 497
83.5 546.429
84.5 495.786
85.5 612
86.5 870.929
87.5 673.5
88.5 548.071
89.5 613.357
90.5 458.643
91.5 462
92.5 416.786
93.5 383.357
94.5 434.929
95.5 424.857
96.5 453.5
97.5 554
98.5 450.429
99.5 499.929
100.5 469.786
101.5 469.214
102.5 530.214
103.5 500.786
104.5 510.643
105.5 450
106.5 633.071
107.5 495.429
108.5 582.286
109.5 509.571
110.5 445.429
111.5 475.5
112.5 664.714
113.5 505.5
114.5 536.357
115.5 525.929
116.5 650.929
117.5 614.857
118.5 739.714
119.5 696.786
120.5 702
121.5 812.643
122.5 824.857
123.5 878.357
124.5 1023.57
125.5 872.143
126.5 814.929
127.5 877.643
128.5 822.786
129.5 880.714
130.5 889.286
131.5 818.357
132.5 911.857
133.5 842.214
134.5 756.071
135.5 681.143
136.5 888.5
137.5 681.857
138.5 730.714
139.5 695.071
140.5 745.5
141.5 636.286
142.5 552.714
143.5 605.929
144.5 569.286
145.5 404.286
146.5 486.5
147.5 439.143
148.5 719.5
149.5 667.143
150.5 738.429
151.5 843.071
152.5 926.429
153.5 918.5
154.5 954.5
155.5 919.286
156.5 979.286
157.5 926.929
158.5 930.357
159.5 975
160.5 879.929
161.5 807.214
162.5 857.786
163.5 928.929
164.5 803.071
165.5 749.929
166.5 657.429
167.5 758.643
168.5 760.857
169.5 783.857
170.5 852.071
171.5 680.714
172.5 794.5
173.5 791.286
174.5 761
175.5 756.5
176.5 592.357
177.5 543.143
178.5 471.643
179.5 273.357
180.5 433.643
181.5 450.857
182.5 622
183.5 527
184.5 755
185.5 894.571
186.5 893.143
187.5 1040.43
188.5 1049.86
189.5 1045.14
190.5 1188.71
191.5 1007.43
192.5 941.429
193.5 1058.71
194.5 975.571
195.5 936.857
196.5 1036.79
197.5 1089.36
198.5 1078.43
199.5 905.643
200.5 947.357
201.5 883
202.5 860.929
203.5 880.857
204.5 857.071
205.5 808.786
206.5 773.429
207.5 859.643
208.5 914.143
209.5 960
210.5 911.643
211.5 891.786
212.5 971.143
213.5 1018
214.5 972.857
215.5 905.786
216.5 996.643
217.5 882.143
218.5 924.571
219.5 832.071
220.5 845.214
221.5 735.429
222.5 677.5
223.5 696.786
224.5 612.286
225.5 682.714
226.5 622.429
227.5 468.571
228.5 526.714
229.5 655.857
230.5 661.143
231.5 656.357
232.5 745.857
233.5 731.929
234.5 770.5
235.5 739.071
236.5 629.5
237.5 931.571
238.5 865.429
239.5 827.214
240.5 892.429
241.5 812.714
242.5 849.357
243.5 922.857
244.5 780.571
245.5 804.643
246.5 833.857
247.5 930.5
248.5 717.571
249.5 725
250.5 675.286
251.5 788
252.5 646.214
253.5 488.643
254.5 732.929
255.5 634
256.5 607.143
257.5 647.214
258.5 759.929
259.5 750.857
260.5 840.214
261.5 801.357
262.5 846.357
263.5 857.643
264.5 945.5
265.5 871.071
266.5 868.286
267.5 772.357
268.5 687
269.5 691.857
270.5 732.143
271.5 619.429
272.5 684.429
273.5 896.643
274.5 828.071
275.5 984.357
276.5 1019.36
277.5 1047.86
278.5 1207.29
279.5 1178.93
280.5 1156.93
281.5 1244.93
282.5 1152.14
283.5 1119.43
284.5 1082.79
285.5 1110.64
286.5 1047.14
287.5 933.643
288.5 922.857
289.5 759.286
290.5 665.071
291.5 692.714
292.5 596.5
293.5 652
294.5 679.286
295.5 554.714
296.5 423.214
297.5 535.714
298.5 541.071
299.5 550.929
300.5 654.714
301.5 463.143
302.5 435.357
303.5 498.357
304.5 497.214
305.5 393.286
306.5 565
307.5 509.071
308.5 552.143
309.5 518.571
310.5 534.286
311.5 448.929
312.5 359.857
313.5 342.786
314.5 181.214
315.5 194.5
316.5 192.643
317.5 192.071
318.5 362.286
319.5 241.5
320.5 411.5
321.5 375.786
322.5 495.429
323.5 558.571
324.5 471.929
325.5 511.286
326.5 536.929
327.5 579.286
328.5 532.5
329.5 537.429
330.5 510.929
331.5 532
332.5 576.143
333.5 610.714
334.5 634.429
335.5 587.5
336.5 506.714
337.5 605.714
338.5 493.286
339.5 532.786
340.5 503.143
341.5 545.857
342.5 547.571
343.5 557.071
344.5 576.714
345.5 477.714
346.5 637.929
347.5 572
348.5 530.429
349.5 500.071
350.5 486.214
351.5 630.071
352.5 503.214
353.5 598.714
354.5 548.571
355.5 595.714
356.5 561.429
357.5 600.071
358.5 646.643
359.5 560.643
360.5 564.214
361.5 580.071
362.5 419.071
363.5 513.643
364.5 578.357
365.5 493.571
366.5 495.571
367.5 544.214
368.5 588.643
369.5 488.857
370.5 394.5
371.5 497.643
372.5 514.071
373.5 444.5
374.5 506.929
375.5 602
376.5 577.786
377.5 581
378.5 638.429
379.5 591.5
380.5 600.5
381.5 711.5
382.5 639.643
383.5 640.214
384.5 591.929
385.5 592.214
386.5 619.5
387.5 567.786
388.5 583.786
389.5 510.071
390.5 537.857
391.5 526.071
392.5 479.357
393.5 492.214
394.5 486.429
395.5 521
396.5 526.929
397.5 510.857
398.5 497.571
399.5 568.714
400.5 558.357
401.5 690.071
402.5 1477.43
403.5 3628.5
404.5 3999.79
405.5 1616.57
406.5 640.643
407.5 483.286
408.5 435.143
409.5 543.357
410.5 503.071
411.5 439.571
412.5 473.643
413.5 495.357
414.5 488.571
415.5 494.5
416.5 446.5
417.5 512.214
418.5 465.071
419.5 434.643
420.5 589.643
421.5 445.571
422.5 513.857
423.5 418.571
424.5 427.571
425.5 465
426.5 486.5
427.5 480.357
428.5 494.643
429.5 396.286
430.5 487.071
431.5 477.429
432.5 481
433.5 479.5
434.5 380.357
435.5 427.214
436.5 438.714
437.5 461
438.5 404.643
439.5 487.071
440.5 480.429
441.5 443.714
442.5 412.929
443.5 363.929
444.5 382.143
445.5 425.929
446.5 425.286
447.5 417.357
448.5 331.143
449.5 425.357
450.5 382.214
451.5 304
452.5 417.571
453.5 424.929
454.5 334.357
455.5 431.071
456.5 449.071
457.5 370.929
458.5 403.643
459.5 351.786
460.5 347.071
461.5 484.929
462.5 425.786
463.5 460.714
464.5 452.286
465.5 528
466.5 408.786
467.5 371.929
468.5 373
469.5 388.714
470.5 392.429
471.5 429
472.5 438.214
473.5 418.857
474.5 520.214
475.5 500.857
476.5 465.214
477.5 519.929
478.5 473.714
479.5 475.429
480.5 519.357
481.5 529
482.5 577.5
483.5 508.071
484.5 585.143
485.5 469.571
486.5 506.143
487.5 455.286
488.5 435.5
489.5 472.857
490.5 454.214
491.5 513
492.5 417.643
493.5 416.357
494.5 470.643
495.5 371.929
496.5 386.429
497.5 450.429
498.5 375.357
499.5 307.643
500.5 322.786
501.5 317.429
502.5 358.5
503.5 464.643
504.5 425.857
505.5 444.143
506.5 619.286
507.5 775.357
508.5 1004.79
509.5 1352.43
510.5 2082.64
511.5 1998.07
512.5 1408.43
513.5 694.714
514.5 510.857
515.5 329.5
516.5 369.929
517.5 439.286
518.5 374.071
519.5 412.571
520.5 292.429
521.5 442
522.5 367.071
523.5 336.643
524.5 402.929
525.5 280.643
526.5 382.786
527.5 415.429
528.5 390.071
529.5 338.786
530.5 414.429
531.5 362.643
532.5 445
533.5 341.786
534.5 365.143
535.5 353.5
536.5 345.857
537.5 390.643
538.5 349.214
539.5 386.643
540.5 391.571
541.5 347
542.5 389.857
543.5 355.571
544.5 336.643
545.5 391.357
546.5 329
547.5 435.357
548.5 414.214
549.5 403.714
550.5 391.5
551.5 386.357
552.5 372.214
553.5 325.929
554.5 405.857
555.5 436.429
556.5 399.286
557.5 401.357
558.5 483.071
559.5 317.357
560.5 352.429
561.5 325.786
562.5 376.786
563.5 357.286
564.5 363.071
565.5 352
566.5 364.571
567.5 314.071
568.5 329.643
569.5 351.214
570.5 403.857
571.5 382.429
572.5 453.214
573.5 527.5
574.5 394
575.5 469.929
576.5 440.286
577.5 402.429
578.5 418.214
579.5 435.286
580.5 448.857
581.5 437.643
582.5 314
583.5 473.071
584.5 417.357
585.5 351.857
586.5 359.643
587.5 403.357
588.5 347.5
589.5 388.714
590.5 379.357
591.5 344.286
592.5 403
593.5 412
594.5 348.571
595.5 358.143
596.5 393.786
597.5 355.429
598.5 395.214
599.5 395.857
600.5 378.357
601.5 411.857
602.5 401.786
603.5 404.786
604.5 363.571
605.5 328.571
606.5 389.214
607.5 283.286
608.5 426.643
609.5 257.929
610.5 302.786
611.5 315.643
612.5 294.786
613.5 363.143
614.5 381.929
615.5 300.643
616.5 347.571
617.5 360.5
618.5 328.214
619.5 314.571
620.5 307.143
621.5 343
622.5 291
623.5 281.786
624.5 289.071
625.5 319.357
626.5 327.143
627.5 501.357
628.5 631.571
629.5 502.857
630.5 453.214
631.5 430.5
632.5 450.5
633.5 387.286
634.5 489.5
635.5 523
636.5 819.071
637.5 1120.71
638.5 884.929
639.5 524.714
640.5 432.643
641.5 393.786
642.5 376.5
643.5 346.714
644.5 381.929
645.5 371.071
646.5 374.786
647.5 376.071
648.5 408.357
649.5 409.929
650.5 676.5
651.5 704.857
652.5 499.214
653.5 389.143
654.5 344.571
655.5 356.857
656.5 306.357
657.5 325.786
658.5 382.143
659.5 324
660.5 383.214
661.5 338.143
662.5 395.929
663.5 379.143
664.5 315.786
665.5 330.429
666.5 356.357
667.5 347.357
668.5 424.643
669.5 350.714
670.5 273.429
671.5 283.429
672.5 328
673.5 313.143
674.5 247.143
675.5 372
676.5 381.071
677.5 290.357
678.5 379.357
679.5 368.286
680.5 369.286
681.5 346.929
682.5 341.071
683.5 344.286
684.5 340.571
685.5 329.643
686.5 381.143
687.5 256.643
688.5 309
689.5 388.071
690.5 321.5
691.5 251.714
692.5 316.929
693.5 352
694.5 347.714
695.5 389.071
696.5 391.214
697.5 353.357
698.5 429
699.5 411.786
700.5 472.214
701.5 413.857
702.5 501.714
703.5 686
704.5 866.429
705.5 657.143
706.5 470
707.5 449.286
708.5 347.071
709.5 406
710.5 374.714
711.5 340.786
712.5 339.357
713.5 337.143
714.5 415.857
715.5 333.214
716.5 431.143
717.5 349.857
718.5 350.643
719.5 362.714
720.5 372.214
721.5 347.071
722.5 395
723.5 351.5
724.5 405.429
725.5 466.286
726.5 443.429
727.5 339.357
728.5 363.357
729.5 350.357
730.5 345.071
731.5 349
732.5 364.214
733.5 346.857
734.5 256
735.5 316
736.5 368.143
737.5 324.571
738.5 334.214
739.5 339.286
740.5 317.429
741.5 358.929
742.5 352.286
743.5 355.786
744.5 294
745.5 311.071
746.5 267.643
747.5 365.286
748.5 272.071
749.5 382.571
750.5 369.286
751.5 369.786
752.5 358
753.5 324.071
754.5 410.714
755.5 401.786
756.5 315.714
757.5 412.5
758.5 417.5
759.5 495.571
760.5 865.357
761.5 882.929
762.5 643.786
763.5 466.143
764.5 492.643
765.5 355
766.5 373.071
767.5 413.571
768.5 388
769.5 314.714
770.5 310.429
771.5 365.786
772.5 378.357
773.5 325.857
774.5 459.929
775.5 367.643
776.5 402.143
777.5 355.5
778.5 394.857
779.5 433.286
780.5 398.429
781.5 383.786
782.5 407.857
783.5 394.214
784.5 348.571
785.5 378.143
786.5 311.571
787.5 448.571
788.5 296.5
789.5 383.286
790.5 323.286
791.5 394.643
792.5 316.071
793.5 354.5
794.5 376.071
795.5 426.571
796.5 416.071
797.5 413.857
798.5 433.357
799.5 431.286
800.5 312.714
801.5 455.714
802.5 345.786
803.5 424.286
804.5 489.286
805.5 613.071
806.5 868.143
807.5 788.857
808.5 554.571
809.5 445.143
810.5 397.5
811.5 347.643
812.5 373.357
813.5 319.929
814.5 391.857
815.5 398.929
816.5 409.714
817.5 396.143
818.5 376.286
819.5 393.857
820.5 336.643
821.5 377.857
822.5 324.714
823.5 380.857
824.5 381.214
825.5 362.5
826.5 427.643
827.5 422.786
828.5 418.857
829.5 415.214
830.5 437.143
831.5 442.357
832.5 386.643
833.5 438.071
834.5 383.429
835.5 410.071
836.5 444.5
837.5 348.214
838.5 423
839.5 368.857
840.5 432.286
841.5 408
842.5 424.071
843.5 435.214
844.5 376.5
845.5 449.5
846.5 389.786
847.5 436.143
848.5 461.286
849.5 455.643
850.5 434.857
851.5 400.857
852.5 499
853.5 415.714
854.5 441
855.5 443.786
856.5 425.214
857.5 397.071
858.5 428.5
859.5 423.214
860.5 438.786
861.5 470.571
862.5 471.357
863.5 400.143
864.5 461.571
865.5 439.286
866.5 412.429
867.5 514.214
868.5 649.786
869.5 678.786
870.5 618.786
871.5 477.929
872.5 503.429
873.5 496.429
874.5 524.643
875.5 453.786
876.5 697.5
877.5 904.214
878.5 993.714
879.5 650.643
880.5 612.643
881.5 525.143
882.5 507.286
883.5 463.929
884.5 498.286
885.5 495
886.5 524.929
887.5 488.071
888.5 444.857
889.5 518.286
890.5 475.929
891.5 576.571
892.5 551
893.5 551.143
894.5 601.857
895.5 627.571
896.5 468.643
897.5 504.929
898.5 498.643
899.5 546.143
900.5 503.429
901.5 630.214
902.5 531.857
903.5 525.786
904.5 534.429
905.5 608.214
906.5 531.071
907.5 614
908.5 587.5
909.5 527.357
910.5 628.929
911.5 572.357
912.5 642.071
913.5 518.214
914.5 537.786
915.5 547.429
916.5 516.857
917.5 497.214
918.5 478.357
919.5 526.071
920.5 481.643
921.5 498.214
922.5 522.5
923.5 561.214
924.5 549.071
925.5 471.786
926.5 566.429
927.5 478.571
928.5 503.643
929.5 574.5
930.5 496.786
931.5 450.786
932.5 465.571
933.5 487.357
934.5 567.929
935.5 559.571
936.5 549.357
937.5 546.143
938.5 527.286
939.5 571.929
940.5 571.5
941.5 498.286
942.5 573.857
943.5 530.714
944.5 529.571
945.5 526.857
946.5 475.286
947.5 565.143
948.5 473
949.5 502.571
950.5 390.714
951.5 437.286
952.5 419.286
953.5 429.5
954.5 378.857
955.5 357.214
956.5 419.214
957.5 454.5
958.5 395.429
959.5 439.786
960.5 393.857
961.5 394.143
962.5 390
963.5 415.214
964.5 370.214
965.5 404
966.5 413.429
967.5 451.857
968.5 408.429
969.5 393.357
970.5 347.357
971.5 367.071
972.5 405.5
973.5 379.214
974.5 350.571
975.5 358.357
976.5 332.286
977.5 357.429
978.5 370.929
979.5 348.286
980.5 318.571
981.5 363.857
982.5 288.5
983.5 300.214
984.5 349.071
985.5 338.929
986.5 343.071
987.5 353.071
988.5 325.643
989.5 299.214
990.5 309.643
991.5 353.357
992.5 382.929
993.5 342
994.5 285.714
995.5 324.357
996.5 313.5
997.5 359.357
998.5 409.429
999.5 542.071
1000.5 1062.21
1001.5 1756.64
1002.5 1606.5
1003.5 834.357
1004.5 405.714
1005.5 274.929
1006.5 325.429
1007.5 288.429
1008.5 278.857
1009.5 269.643
1010.5 281.714
1011.5 354.143
1012.5 320.143
1013.5 273.929
1014.5 286.214
1015.5 339.429
1016.5 322.929
1017.5 345.429
1018.5 328.143
1019.5 373.429
1020.5 247.5
1021.5 306.143
1022.5 326.786
1023.5 513
1024.5 745.643
1025.5 595.286
1026.5 406.071
1027.5 255.5
1028.5 297.429
1029.5 217.214
1030.5 235.857
1031.5 234.429
1032.5 258.5
1033.5 264.071
1034.5 303
1035.5 245.571
1036.5 284.786
1037.5 249
1038.5 223.071
1039.5 240.857
1040.5 233.5
1041.5 188.357
1042.5 233.643
1043.5 246.643
1044.5 219.714
1045.5 209.429
1046.5 270.143
1047.5 199.643
1048.5 200.571
1049.5 230
1050.5 214.357
1051.5 176.714
1052.5 244.286
1053.5 194.286
1054.5 225.643
1055.5 197.929
1056.5 241.786
1057.5 204.5
1058.5 220.571
1059.5 222.857
1060.5 191.714
1061.5 205.643
1062.5 213.929
1063.5 231.429
1064.5 198.643
1065.5 212.714
1066.5 259.214
1067.5 180.929
1068.5 206.643
1069.5 189.214
1070.5 184.857
1071.5 279.571
1072.5 484.286
1073.5 980.571
1074.5 1031.79
1075.5 589.214
1076.5 299.571
1077.5 217.429
1078.5 196.286
1079.5 162.5
1080.5 136.714
1081.5 152
1082.5 187.571
1083.5 190.643
1084.5 174.786
1085.5 192.143
1086.5 185
1087.5 193.786
1088.5 206.357
1089.5 189.286
1090.5 223.714
1091.5 369.643
1092.5 688.5
1093.5 855.571
1094.5 486.5
1095.5 83.7857
1096.5 89.5
1097.5 123
1098.5 145.786
1099.5 223.143
1100.5 297.214
1101.5 308.643
1102.5 203.357
1103.5 186.214
1104.5 173.714
1105.5 186.071
1106.5 210.071
1107.5 178.214
1108.5 196.429
1109.5 228.214
1110.5 188
1111.5 184.5
1112.5 197.071
1113.5 229.571
1114.5 225
1115.5 219.5
1116.5 202
1117.5 162.071
1118.5 204.143
1119.5 229.071
1120.5 231.786
1121.5 294
1122.5 656.929
1123.5 2109.43
1124.5 6923.93
1125.5 16357.9
1126.5 18464.1
1127.5 8266.07
1128.5 1994.93
1129.5 535.571
1130.5 237.786
1131.5 160.286
1132.5 162.643
1133.5 150.357
1134.5 124.143
1135.5 155.929
1136.5 162.214
1137.5 161.643
1138.5 142.071
1139.5 198
1140.5 125.5
1141.5 110.5
1142.5 155.571
1143.5 179.857
1144.5 190
1145.5 139.143
1146.5 162.714
1147.5 184.786
1148.5 160.143
1149.5 173.857
1150.5 198.429
1151.5 225.214
1152.5 301.214
1153.5 956.429
1154.5 2938.79
1155.5 10626.5
1156.5 23451.5
1157.5 23766.9
1158.5 10159.4
1159.5 2247.29
1160.5 407.643
1161.5 192.857
1162.5 110.786
1163.5 122.071
1164.5 158.143
1165.5 107.714
1166.5 86
1167.5 52.9286
1168.5 61.7143
1169.5 70.4286
1170.5 61.9286
1171.5 86.2857
1172.5 69.3571
1173.5 58.1429
1174.5 105.786
1175.5 76.9286
1176.5 92.0714
1177.5 94.5714
1178.5 73.6429
1179.5 82.8571
1180.5 75.5714
1181.5 40.5
1182.5 74.7143
1183.5 110.714
1184.5 52.0714
1185.5 86.9286
1186.5 74.5714
1187.5 69.9286
1188.5 83.2143
1189.5 75.8571
1190.5 82.2857
1191.5 71.3571
1192.5 81.2857
1193.5 93.7143
1194.5 163.429
1195.5 400.857
1196.5 655.5
1197.5 539.857
1198.5 247.429
1199.5 126.143
1200.5 81.8571
1201.5 93.2857
1202.5 72.2143
1203.5 70.1429
1204.5 90.5
1205.5 105.143
1206.5 61.1429
1207.5 81.1429
1208.5 60.6429
1209.5 87
1210.5 71.9286
1211.5 97.5
1212.5 57.0714
1213.5 63.2143
1214.5 77.3571
1215.5 98.7857
1216.5 93.2143
1217.5 80.8571
1218.5 116.857
1219.5 98.9286
1220.5 97.3571
1221.5 47.2857
1222.5 37.9286
1223.5 89.0714
1224.5 88.2143
1225.5 128.429
1226.5 43.3571
1227.5 111.357
1228.5 98.9286
1229.5 74.3571
1230.5 67.3571
1231.5 62.1429
1232.5 113.571
1233.5 79.7143
1234.5 55.0714
1235.5 90.7143
1236.5 72.7857
1237.5 69.4286
1238.5 85.9286
1239.5 81.2857
1240.5 94.5714
1241.5 93.2143
1242.5 98.3571
1243.5 44.7143
1244.5 73.8571
1245.5 66.2857
1246.5 52.2143
1247.5 79.2857
1248.5 72.7143
1249.5 83.9286
1250.5 96
1251.5 65.8571
1252.5 55.0714
1253.5 81.5714
1254.5 72.2143
1255.5 77.7143
1256.5 97.8571
1257.5 61
1258.5 70.8571
1259.5 42.5
1260.5 64.6429
1261.5 87.2143
1262.5 95.6429
1263.5 66.5714
1264.5 72.7857
1265.5 101
1266.5 78
1267.5 38.5714
1268.5 105.357
1269.5 74.2143
1270.5 83
1271.5 63.9286
1272.5 76.2143
1273.5 103.429
1274.5 113.571
1275.5 75.3571
1276.5 140.143
1277.5 135.786
1278.5 113.857
1279.5 105
1280.5 77.6429
1281.5 108.143
1282.5 83.6429
1283.5 89.7143
1284.5 94.2143
1285.5 69.1429
1286.5 63.2857
1287.5 88.2143
1288.5 109.929
1289.5 98.8571
1290.5 92.6429
1291.5 88.4286
1292.5 109.5
1293.5 71.2143
1294.5 49.8571
1295.5 78.7143
1296.5 78.3571
1297.5 54.9286
1298.5 95.7143
1299.5 79.3571
1300.5 67.5714
1301.5 62.5714
1302.5 89.4286
1303.5 113.643
1304.5 36.7857
1305.5 90.5714
1306.5 61.7143
1307.5 67.9286
1308.5 69.0714
1309.5 110.214
1310.5 94.3571
1311.5 78.4286
1312.5 93.6429
1313.5 65.2143
1314.5 86.0714
1315.5 91.3571
1316.5 63.7857
1317.5 85.3571
1318.5 72.5714
1319.5 68.8571
1320.5 97.4286
1321.5 70.7857
1322.5 91.0714
1323.5 41.4286
1324.5 55.2857
1325.5 85.1429
1326.5 107.714
1327.5 63.7857
1328.5 92.1429
1329.5 82.5
1330.5 80.7143
1331.5 56.6429
1332.5 70.5714
1333.5 90.9286
1334.5 113.5
1335.5 71.2857
1336.5 62.8571
1337.5 74.4286
1338.5 74.2857
1339.5 84
1340.5 71.5714
1341.5 106.143
1342.5 78.1429
1343.5 100.714
1344.5 97.2143
1345.5 82.9286
1346.5 93.3571
1347.5 70.8571
1348.5 51.4286
1349.5 96.7857
1350.5 76.8571
1351.5 61.8571
1352.5 62.5
1353.5 94
1354.5 88.3571
1355.5 95.4286
1356.5 108.929
1357.5 107.071
1358.5 33.2143
1359.5 83.1429
1360.5 84.6429
1361.5 105
1362.5 116.571
1363.5 136.714
1364.5 379.429
1365.5 742.286
1366.5 838.071
1367.5 431.571
1368.5 180
1369.5 108.571
1370.5 93
1371.5 72.5714
1372.5 128.429
1373.5 169.929
1374.5 259
1375.5 255.643
1376.5 214.5
1377.5 116.643
1378.5 83.5
1379.5 85.6429
1380.5 59.0714
1381.5 70.1429
1382.5 52
1383.5 86.6429
1384.5 83.6429
1385.5 60.0714
1386.5 73.4286
1387.5 48.5
1388.5 77.0714
1389.5 77.5
1390.5 33.3571
1391.5 67.2143
1392.5 69.9286
1393.5 67.2857
1394.5 82
1395.5 87
1396.5 45.7143
1397.5 63.5714
1398.5 87.7143
1399.5 65.1429
1400.5 72.4286
1401.5 59.6429
1402.5 72.9286
1403.5 39.7857
1404.5 95.8571
1405.5 63.3571
1406.5 74.6429
1407.5 -18.8571
1408.5 -46.5714
1409.5 13.5714
1410.5 62.0714
1411.5 77.7857
1412.5 51.1429
1413.5 69.2143
1414.5 53.8571
1415.5 68.0714
1416.5 54
1417.5 117.5
1418.5 78.8571
1419.5 81
1420.5 65.3571
1421.5 83.3571
1422.5 77.5714
1423.5 107.286
1424.5 94.4286
1425.5 126.214
1426.5 296.357
1427.5 615.714
1428.5 949.357
1429.5 781.929
1430.5 297.571
1431.5 100.071
1432.5 64.5
1433.5 54.1429
1434.5 64.6429
1435.5 59.2857
1436.5 61.5714
1437.5 105
1438.5 81.2857
1439.5 59.5714
1440.5 48.9286
1441.5 50.0714
