# EGG_ProjY_E2178.5(4.5)_B2160.0(2.0)_B2205.5(1.5)
# X axis : Energy (keV) [Y axis]
# Y axis : Counts/1 keV
# N Bins : 12000
# X Min : 0
# X Max : 12000
# X value at the center of the bins
0.5 0
1.5 0
2.5 0
3.5 0
4.5 0
5.5 1.57143
6.5 -10.8571
7.5 6.57143
8.5 -21.1429
9.5 0.428572
10.5 -19.2857
11.5 10.7143
12.5 -1.85714
13.5 31.8571
14.5 7.71429
15.5 5.42857
16.5 55.2857
17.5 7.57143
18.5 88.1429
19.5 50.5714
20.5 155.857
21.5 59.5714
22.5 157.571
23.5 97.8572
24.5 180.429
25.5 179
26.5 292
27.5 228
28.5 115
29.5 311.571
30.5 371.143
31.5 71.5715
32.5 482
33.5 359
34.5 419.857
35.5 245.286
36.5 334.571
37.5 509.143
38.5 508.714
39.5 585.429
40.5 578
41.5 607
42.5 862.714
43.5 846.857
44.5 551.143
45.5 621.571
46.5 488.143
47.5 631.429
48.5 676.429
49.5 448.286
50.5 612.714
51.5 493.571
52.5 405.429
53.5 436.143
54.5 498.857
55.5 509.143
56.5 416.429
57.5 497.571
58.5 502.857
59.5 582.571
60.5 365
61.5 242.714
62.5 175.571
63.5 101.143
64.5 401.429
65.5 397.571
66.5 386.143
67.5 647.286
68.5 338.429
69.5 597.857
70.5 485.286
71.5 541.429
72.5 674.714
73.5 450.571
74.5 688.714
75.5 1025
76.5 858.429
77.5 1039.43
78.5 641.286
79.5 760.857
80.5 731.571
81.5 395.571
82.5 346.714
83.5 517.571
84.5 358
85.5 521.857
86.5 583
87.5 838
88.5 568.286
89.5 327.857
90.5 631
91.5 280.429
92.5 285.143
93.5 447.429
94.5 455.143
95.5 602.143
96.5 390.714
97.5 511
98.5 608.857
99.5 572
100.5 552.286
101.5 508.714
102.5 476
103.5 417.143
104.5 552.143
105.5 780.714
106.5 539.571
107.5 626
108.5 522.143
109.5 563
110.5 396.286
111.5 548.143
112.5 516.286
113.5 709.857
114.5 552.286
115.5 581
116.5 611.571
117.5 717.143
118.5 936.286
119.5 420
120.5 569.857
121.5 497.143
122.5 683.714
123.5 630
124.5 867.429
125.5 679
126.5 464.857
127.5 664.429
128.5 585.571
129.5 597.286
130.5 449.857
131.5 584
132.5 591.429
133.5 448.286
134.5 463.857
135.5 586
136.5 481.286
137.5 319.572
138.5 267.286
139.5 451.572
140.5 481.572
141.5 588.429
142.5 604.286
143.5 619.429
144.5 453.143
145.5 811.571
146.5 615.572
147.5 675
148.5 503.143
149.5 660.714
150.5 823.572
151.5 557.143
152.5 788.714
153.5 545.857
154.5 702
155.5 753.572
156.5 819
157.5 912
158.5 683.286
159.5 896
160.5 686.714
161.5 598.857
162.5 748.143
163.5 778.143
164.5 814.286
165.5 701.429
166.5 707.572
167.5 722.143
168.5 633.143
169.5 747
170.5 704.429
171.5 601.143
172.5 718.286
173.5 1240.86
174.5 1611.86
175.5 1283.14
176.5 817.714
177.5 802.714
178.5 675.857
179.5 666.714
180.5 937
181.5 947.857
182.5 1046.29
183.5 677
184.5 669.857
185.5 717.572
186.5 767
187.5 788.286
188.5 795.857
189.5 706.572
190.5 583.572
191.5 937.429
192.5 879
193.5 720.714
194.5 832.286
195.5 758.429
196.5 862.857
197.5 944.572
198.5 1044.86
199.5 968
200.5 1171
201.5 997.714
202.5 747.857
203.5 884.286
204.5 782.714
205.5 725.572
206.5 804.429
207.5 684.714
208.5 674
209.5 855.429
210.5 671.286
211.5 740.429
212.5 726.286
213.5 635
214.5 573.429
215.5 706.857
216.5 610.429
217.5 684.857
218.5 614.857
219.5 644
220.5 610
221.5 553.429
222.5 667.714
223.5 875.572
224.5 639.429
225.5 622.857
226.5 569.143
227.5 755.143
228.5 686
229.5 561.572
230.5 476.714
231.5 539.857
232.5 843.143
233.5 715.714
234.5 933.572
235.5 798.429
236.5 977.143
237.5 984.714
238.5 927.143
239.5 741.714
240.5 619.572
241.5 917.857
242.5 637.429
243.5 1011.71
244.5 877.857
245.5 795
246.5 893
247.5 777.286
248.5 1043.86
249.5 944.571
250.5 913.286
251.5 1079.14
252.5 1101
253.5 991.714
254.5 1085.29
255.5 892.857
256.5 882.571
257.5 886
258.5 974.143
259.5 967.571
260.5 761.571
261.5 635
262.5 745.571
263.5 923.857
264.5 707.143
265.5 627.857
266.5 673.857
267.5 481
268.5 330.143
269.5 316.571
270.5 476.571
271.5 474.286
272.5 514.571
273.5 510
274.5 568.143
275.5 490
276.5 578.857
277.5 484.429
278.5 630.143
279.5 609.143
280.5 605.857
281.5 555.571
282.5 450
283.5 632.286
284.5 493.714
285.5 376.143
286.5 573.286
287.5 555.857
288.5 592.714
289.5 744.143
290.5 755.571
291.5 666.143
292.5 836.143
293.5 680.143
294.5 652.429
295.5 874.714
296.5 538.429
297.5 444
298.5 704.429
299.5 399.429
300.5 383.286
301.5 472.429
302.5 463
303.5 492
304.5 604.286
305.5 327.429
306.5 381.857
307.5 349.571
308.5 499.286
309.5 477
310.5 260.286
311.5 29.1429
312.5 -55.2857
313.5 208
314.5 140
315.5 465.429
316.5 649.571
317.5 456.143
318.5 644.857
319.5 400.571
320.5 742.429
321.5 396.429
322.5 413
323.5 436.429
324.5 700.143
325.5 1060.57
326.5 941.571
327.5 799
328.5 748.143
329.5 630.714
330.5 589.143
331.5 497.857
332.5 602.143
333.5 632.286
334.5 819.143
335.5 1038.29
336.5 909.571
337.5 1031.29
338.5 1022.71
339.5 1230.43
340.5 1121.14
341.5 940.143
342.5 1080.86
343.5 785.286
344.5 722.714
345.5 725.429
346.5 704.286
347.5 727.143
348.5 750.857
349.5 865.143
350.5 827.571
351.5 683.286
352.5 689.429
353.5 646.857
354.5 559.714
355.5 429.143
356.5 71.4286
357.5 -176.571
358.5 -260.429
359.5 -145
360.5 88.7143
361.5 327.571
362.5 402.571
363.5 326.857
364.5 663.143
365.5 221.143
366.5 253.429
367.5 522
368.5 260.714
369.5 255.286
370.5 346.429
371.5 363.857
372.5 261.143
373.5 449.286
374.5 271.143
375.5 452.857
376.5 548.143
377.5 392.571
378.5 575.286
379.5 479.857
380.5 422.429
381.5 342
382.5 419.857
383.5 439.714
384.5 338.429
385.5 261.143
386.5 371
387.5 384.429
388.5 500.714
389.5 407.286
390.5 397
391.5 475.143
392.5 345
393.5 400
394.5 512.429
395.5 457.714
396.5 459.714
397.5 388.571
398.5 455.571
399.5 554.143
400.5 626
401.5 813
402.5 2137.86
403.5 5851
404.5 6204
405.5 2376.29
406.5 773.286
407.5 401
408.5 160.571
409.5 376.143
410.5 219.143
411.5 -8.14282
412.5 31.2858
413.5 142.714
414.5 169.571
415.5 81.1429
416.5 269.714
417.5 399.857
418.5 390
419.5 429.143
420.5 379.714
421.5 489.714
422.5 402.286
423.5 348.571
424.5 405
425.5 370.571
426.5 516.286
427.5 572.714
428.5 378.714
429.5 347.143
430.5 525.714
431.5 517.857
432.5 474.143
433.5 575.571
434.5 530
435.5 727.571
436.5 658.714
437.5 733.143
438.5 617.143
439.5 709.143
440.5 608.857
441.5 670.571
442.5 608.286
443.5 478
444.5 341
445.5 438.429
446.5 230.143
447.5 260.714
448.5 137.143
449.5 163.429
450.5 270
451.5 122.143
452.5 197.143
453.5 246.857
454.5 128.571
455.5 62.7143
456.5 239
457.5 59.7143
458.5 79.5715
459.5 110.571
460.5 138.857
461.5 310.857
462.5 387.571
463.5 456.429
464.5 360.143
465.5 148.429
466.5 364
467.5 322
468.5 352.286
469.5 257.571
470.5 296.143
471.5 362
472.5 463.143
473.5 300.143
474.5 486.429
475.5 457
476.5 539.429
477.5 540.143
478.5 380.571
479.5 389.143
480.5 258
481.5 235.286
482.5 313.571
483.5 308.429
484.5 308.143
485.5 374.429
486.5 193.571
487.5 296.571
488.5 290.714
489.5 346.714
490.5 391.857
491.5 278.429
492.5 332.143
493.5 265.143
494.5 239.143
495.5 149
496.5 163.286
497.5 257.429
498.5 271
499.5 384.286
500.5 385
501.5 372
502.5 264.857
503.5 480.143
504.5 394.286
505.5 564.286
506.5 560.143
507.5 1009.14
508.5 2068.71
509.5 3548.86
510.5 4520.71
511.5 3413.86
512.5 2119.43
513.5 785.286
514.5 202
515.5 133.857
516.5 48.4286
517.5 52.2857
518.5 138.429
519.5 102.143
520.5 92.1429
521.5 260.714
522.5 225.714
523.5 373.143
524.5 366.714
525.5 184.286
526.5 212
527.5 255.857
528.5 256
529.5 251.286
530.5 113.429
531.5 316.286
532.5 268.857
533.5 456.571
534.5 364.571
535.5 212.857
536.5 398.857
537.5 463.143
538.5 356
539.5 508.714
540.5 604.571
541.5 690.429
542.5 613.714
543.5 560.429
544.5 597.143
545.5 439.143
546.5 468.571
547.5 441.571
548.5 346.143
549.5 387.286
550.5 267.286
551.5 296.571
552.5 340.286
553.5 269.143
554.5 365.571
555.5 333.286
556.5 285
557.5 281.286
558.5 97.2857
559.5 60.2857
560.5 -12.7143
561.5 -52.1428
562.5 46.1429
563.5 69.2857
564.5 162.857
565.5 106.714
566.5 377.286
567.5 210.286
568.5 257.286
569.5 425.857
570.5 346.857
571.5 313.429
572.5 355.429
573.5 200.571
574.5 221.143
575.5 275
576.5 234.143
577.5 348.143
578.5 319.429
579.5 258.286
580.5 339.286
581.5 727.429
582.5 2371
583.5 4299.86
584.5 2743.29
585.5 854.429
586.5 247.857
587.5 181
588.5 302
589.5 276.143
590.5 233
591.5 160.714
592.5 343.857
593.5 183.143
594.5 231.143
595.5 352.429
596.5 105.714
597.5 228.143
598.5 209.286
599.5 285.143
600.5 304.286
601.5 256.429
602.5 149.714
603.5 206.286
604.5 245.714
605.5 373.857
606.5 294
607.5 225.714
608.5 197.714
609.5 171.857
610.5 259.857
611.5 169.571
612.5 149.143
613.5 265.143
614.5 215
615.5 161.286
616.5 275.429
617.5 267.286
618.5 259.143
619.5 268.143
620.5 294.143
621.5 344.143
622.5 421
623.5 315.286
624.5 240.143
625.5 277
626.5 452.714
627.5 1285.43
628.5 2339.86
629.5 1681.57
630.5 596.714
631.5 170.286
632.5 233
633.5 211.714
634.5 282
635.5 229.429
636.5 -113.571
637.5 -413.571
638.5 -217
639.5 79.2857
640.5 167.714
641.5 189.714
642.5 144
643.5 245.143
644.5 172.286
645.5 186.429
646.5 228.714
647.5 198.857
648.5 107.714
649.5 227
650.5 249.143
651.5 550.429
652.5 373.286
653.5 172.143
654.5 202.857
655.5 333.429
656.5 187.571
657.5 196.286
658.5 163
659.5 115.143
660.5 307.143
661.5 238.143
662.5 317.857
663.5 632.429
664.5 1128.43
665.5 1094.29
666.5 800.571
667.5 572.857
668.5 366.143
669.5 278.714
670.5 283.857
671.5 308.857
672.5 168.857
673.5 367.143
674.5 315.714
675.5 161.571
676.5 244.857
677.5 132.857
678.5 130.143
679.5 249.714
680.5 135
681.5 163.286
682.5 111
683.5 155.429
684.5 52.7143
685.5 175.714
686.5 334
687.5 442.857
688.5 201.286
689.5 296.429
690.5 194.571
691.5 90.2857
692.5 237
693.5 211.714
694.5 306.571
695.5 258.143
696.5 128.429
697.5 199
698.5 316.857
699.5 159.429
700.5 206.286
701.5 201
702.5 110.286
703.5 147.429
704.5 257
705.5 168.714
706.5 105.143
707.5 243.429
708.5 111.143
709.5 200.143
710.5 262
711.5 255.286
712.5 301.143
713.5 264.714
714.5 258
715.5 175.714
716.5 216
717.5 277.714
718.5 243.429
719.5 249
720.5 230.429
721.5 294
722.5 178.714
723.5 206.857
724.5 284.571
725.5 233.714
726.5 189.286
727.5 243.429
728.5 211
729.5 205.857
730.5 220
731.5 223.857
732.5 183.429
733.5 219.286
734.5 259.143
735.5 189.429
736.5 221.286
737.5 177.714
738.5 207.857
739.5 64.7143
740.5 104.143
741.5 81.4286
742.5 -17.4286
743.5 140.286
744.5 114.429
745.5 207.429
746.5 206.286
747.5 199
748.5 145.143
749.5 165
750.5 304.714
751.5 199
752.5 199
753.5 180.429
754.5 290
755.5 182.714
756.5 301.714
757.5 151
758.5 305.286
759.5 1144
760.5 2856.14
761.5 3273
762.5 1321.14
763.5 598
764.5 391
765.5 444.143
766.5 368.286
767.5 307.143
768.5 257
769.5 378.857
770.5 402.571
771.5 334.714
772.5 262
773.5 277.429
774.5 242.143
775.5 197.429
776.5 303
777.5 189.143
778.5 220.714
779.5 342.714
780.5 99.1429
781.5 233.857
782.5 189
783.5 195.571
784.5 56.5714
785.5 79.8572
786.5 115.429
787.5 45.5715
788.5 100
789.5 140.143
790.5 116.286
791.5 278.857
792.5 314.429
793.5 128.714
794.5 195.143
795.5 170.429
796.5 246.429
797.5 104.143
798.5 49.1429
799.5 208
800.5 103.857
801.5 180
802.5 250.429
803.5 183.143
804.5 141.857
805.5 56.5715
806.5 -122.429
807.5 -167
808.5 -12.8571
809.5 229.429
810.5 173.286
811.5 247.714
812.5 322.714
813.5 349.571
814.5 437.143
815.5 227.429
816.5 321.429
817.5 273.857
818.5 249.143
819.5 248.143
820.5 110.429
821.5 176.571
822.5 170.143
823.5 203.429
824.5 289.429
825.5 245.286
826.5 227
827.5 187.143
828.5 194.286
829.5 242
830.5 186.286
831.5 70
832.5 205.714
833.5 76.5714
834.5 194.143
835.5 185.857
836.5 232.286
837.5 314.286
838.5 156.857
839.5 205.286
840.5 236.286
841.5 169.714
842.5 166.429
843.5 205.143
844.5 97.5714
845.5 162.714
846.5 201.714
847.5 158.429
848.5 275.429
849.5 124.429
850.5 272.429
851.5 324.429
852.5 177.857
853.5 245
854.5 283.571
855.5 332.857
856.5 327.714
857.5 272
858.5 252.429
859.5 200.429
860.5 236.143
861.5 330.714
862.5 259
863.5 232.286
864.5 302.571
865.5 406.857
866.5 247.714
867.5 936.143
868.5 1970.14
869.5 2535.14
870.5 1534.86
871.5 602
872.5 232.857
873.5 278.714
874.5 188
875.5 228.571
876.5 18.8572
877.5 20.1429
878.5 45.5715
879.5 43.7143
880.5 214.429
881.5 240.857
882.5 256
883.5 241.571
884.5 244.714
885.5 279
886.5 263.857
887.5 62
888.5 207.143
889.5 105.286
890.5 147
891.5 322.857
892.5 213.429
893.5 194.857
894.5 252.857
895.5 299.286
896.5 244.857
897.5 295.286
898.5 283.857
899.5 210.429
900.5 146.857
901.5 252
902.5 194.857
903.5 335.143
904.5 348.143
905.5 317.857
906.5 226.857
907.5 347.429
908.5 278
909.5 195.429
910.5 243
911.5 282.857
912.5 191.571
913.5 324.857
914.5 217
915.5 289
916.5 154
917.5 249
918.5 293.571
919.5 179.429
920.5 365.714
921.5 267.429
922.5 221.429
923.5 212.286
924.5 280
925.5 266.286
926.5 279.429
927.5 176.286
928.5 196.571
929.5 187.429
930.5 248.286
931.5 300.714
932.5 188.857
933.5 308.571
934.5 321.714
935.5 265.571
936.5 217.857
937.5 346.571
938.5 167.714
939.5 329.429
940.5 279.429
941.5 200.571
942.5 199
943.5 265.143
944.5 174.143
945.5 212.571
946.5 113.571
947.5 195
948.5 229.429
949.5 238.286
950.5 258.143
951.5 178.429
952.5 165.143
953.5 260.429
954.5 258.143
955.5 249.571
956.5 166.571
957.5 190.571
958.5 201.571
959.5 92.5714
960.5 130.143
961.5 258.714
962.5 194.857
963.5 248.857
964.5 261.571
965.5 212.143
966.5 54.5715
967.5 159.571
968.5 36.7143
969.5 85.8572
970.5 179.286
971.5 204.857
972.5 232.143
973.5 210.429
974.5 297.143
975.5 131.857
976.5 315.429
977.5 132.571
978.5 181.286
979.5 162.429
980.5 114.714
981.5 131.714
982.5 57
983.5 10
984.5 152.429
985.5 204.143
986.5 157.429
987.5 100.429
988.5 173.143
989.5 156.143
990.5 247.286
991.5 193.857
992.5 170.429
993.5 180.143
994.5 108.571
995.5 130.571
996.5 196.571
997.5 82.4286
998.5 143.571
999.5 369.571
1000.5 781
1001.5 1443.29
1002.5 1479.29
1003.5 624
1004.5 292.857
1005.5 297.429
1006.5 89
1007.5 174.429
1008.5 144.429
1009.5 140.857
1010.5 154.143
1011.5 110.143
1012.5 108.714
1013.5 93
1014.5 141.857
1015.5 96.2857
1016.5 128.143
1017.5 191.857
1018.5 201.429
1019.5 167.143
1020.5 191.286
1021.5 196.714
1022.5 305.429
1023.5 485.143
1024.5 919.143
1025.5 680.857
1026.5 265.571
1027.5 103.429
1028.5 152.286
1029.5 100.286
1030.5 81.7143
1031.5 209
1032.5 86.2857
1033.5 138
1034.5 142.143
1035.5 155
1036.5 142.143
1037.5 119.286
1038.5 158.429
1039.5 36.4286
1040.5 239.857
1041.5 149.714
1042.5 63.1429
1043.5 222
1044.5 157.286
1045.5 128.286
1046.5 187.714
1047.5 172.143
1048.5 48.8572
1049.5 32
1050.5 -40.4286
1051.5 85.8572
1052.5 157.714
1053.5 147.143
1054.5 202.143
1055.5 176.286
1056.5 201.286
1057.5 34.2857
1058.5 140.571
1059.5 183.714
1060.5 199
1061.5 234.857
1062.5 136.429
1063.5 163.429
1064.5 111.429
1065.5 138.286
1066.5 93.1429
1067.5 213.143
1068.5 47.8572
1069.5 68.5714
1070.5 145
1071.5 102.143
1072.5 193.857
1073.5 102.714
1074.5 22.8572
1075.5 96.1429
1076.5 120.857
1077.5 206.857
1078.5 228.714
1079.5 202.714
1080.5 62.8572
1081.5 117.857
1082.5 139.143
1083.5 60.5714
1084.5 130.857
1085.5 99.7143
1086.5 196.429
1087.5 293.571
1088.5 368.143
1089.5 347
1090.5 415.857
1091.5 369.143
1092.5 229.714
1093.5 206
1094.5 62.8572
1095.5 110.714
1096.5 148.857
1097.5 165.429
1098.5 134.857
1099.5 109.429
1100.5 125
1101.5 135.857
1102.5 162.714
1103.5 128.571
1104.5 133.143
1105.5 85.5714
1106.5 55.8572
1107.5 187.571
1108.5 116.571
1109.5 77
1110.5 143.714
1111.5 7.85715
1112.5 12
1113.5 99.7143
1114.5 151.857
1115.5 202.143
1116.5 70.7143
1117.5 63.1429
1118.5 111.429
1119.5 17.7143
1120.5 55.5714
1121.5 193.857
1122.5 258.429
1123.5 552.857
1124.5 1931.57
1125.5 4085.14
1126.5 4237.86
1127.5 2172.29
1128.5 630.857
1129.5 202.143
1130.5 143.857
1131.5 171.286
1132.5 123.286
1133.5 145.571
1134.5 126.286
1135.5 91.5714
1136.5 101.143
1137.5 155.714
1138.5 146.714
1139.5 159
1140.5 115.286
1141.5 122.571
1142.5 140
1143.5 117
1144.5 96.4286
1145.5 150
1146.5 115.286
1147.5 147.429
1148.5 79.1429
1149.5 128
1150.5 105.143
1151.5 97.2857
1152.5 132.429
1153.5 226.429
1154.5 1517.29
1155.5 4491
1156.5 9866.86
1157.5 10166.3
1158.5 4166.43
1159.5 1062
1160.5 316.857
1161.5 129.714
1162.5 122.714
1163.5 70.4286
1164.5 44
1165.5 169.286
1166.5 79.1429
1167.5 71.2857
1168.5 115.286
1169.5 81.7143
1170.5 20.8572
1171.5 136.571
1172.5 61.4286
1173.5 106.143
1174.5 36.4286
1175.5 96
1176.5 19.5714
1177.5 78.5714
1178.5 97.5714
1179.5 98.8571
1180.5 46.2857
1181.5 80.5714
1182.5 3.42858
1183.5 114.571
1184.5 79.4286
1185.5 84.4286
1186.5 85.2857
1187.5 108.143
1188.5 160.143
1189.5 75
1190.5 116.429
1191.5 5.71429
1192.5 103.857
1193.5 95.1429
1194.5 83
1195.5 73.2857
1196.5 40.4286
1197.5 60.2857
1198.5 51.2857
1199.5 88.8571
1200.5 65.4286
1201.5 45
1202.5 104.429
1203.5 56.5714
1204.5 176.571
1205.5 83.7143
1206.5 148.714
1207.5 77.4286
1208.5 62.2857
1209.5 21.1429
1210.5 79.7143
1211.5 111.286
1212.5 88.1429
1213.5 117.714
1214.5 85
1215.5 114
1216.5 111.286
1217.5 95.5714
1218.5 46.4286
1219.5 86.8571
1220.5 33
1221.5 125
1222.5 116.143
1223.5 21.1429
1224.5 37.2857
1225.5 73.8572
1226.5 19.2857
1227.5 -1.85713
1228.5 55.7143
1229.5 57
1230.5 87.5714
1231.5 109.714
1232.5 86.4286
1233.5 70.2857
1234.5 79.4286
1235.5 44.7143
1236.5 8.71429
1237.5 65.1429
1238.5 38.4286
1239.5 15.7143
1240.5 32.1429
1241.5 86.4286
1242.5 87.4286
1243.5 84.1429
1244.5 -2.42856
1245.5 46.4286
1246.5 79.1429
1247.5 135.429
1248.5 89.1429
1249.5 66.2857
1250.5 76.7143
1251.5 80.5714
1252.5 84.7143
1253.5 99.1429
1254.5 53.1429
1255.5 157
1256.5 84
1257.5 104.429
1258.5 40.1429
1259.5 99.7143
1260.5 163.714
1261.5 99
1262.5 49
1263.5 2.28572
1264.5 42.1429
1265.5 82.5714
1266.5 122.429
1267.5 105.429
1268.5 -31
1269.5 39.8571
1270.5 48.8571
1271.5 132.571
1272.5 79.1429
1273.5 82
1274.5 53.1429
1275.5 71
1276.5 58.2857
1277.5 79.1429
1278.5 -16.1428
1279.5 -8.71428
1280.5 63.5714
1281.5 57.4286
1282.5 56.7143
1283.5 122.429
1284.5 209.286
1285.5 89.7143
1286.5 49.8571
1287.5 28.2857
1288.5 68.7143
1289.5 61.4286
1290.5 86.2857
1291.5 86
1292.5 105.143
1293.5 134.429
1294.5 65
1295.5 63.5714
1296.5 80.7143
1297.5 56.1429
1298.5 77.4286
1299.5 36.4286
1300.5 27.4286
1301.5 89.8571
1302.5 21.2857
1303.5 74.7143
1304.5 56.4286
1305.5 157.286
1306.5 426
1307.5 1267.14
1308.5 2817.86
1309.5 3025.86
1310.5 1564.43
1311.5 277.429
1312.5 -63.2857
1313.5 39.1429
1314.5 49.1429
1315.5 60
1316.5 81.8571
1317.5 72.5714
1318.5 32
1319.5 95.1429
1320.5 56.8571
1321.5 -11
1322.5 37.7143
1323.5 69.2857
1324.5 3.00001
1325.5 16.2857
1326.5 54.7143
1327.5 52.1429
1328.5 -2.42856
1329.5 129.143
1330.5 77.8571
1331.5 93.5714
1332.5 29
1333.5 62.7143
1334.5 74.2857
1335.5 44
1336.5 30.5714
1337.5 6.31809e-06
1338.5 72
1339.5 67.2857
1340.5 29.1429
1341.5 49.1429
1342.5 71.1429
1343.5 62.1429
1344.5 78.5714
1345.5 39.5714
1346.5 63
1347.5 63.8571
1348.5 57.2857
1349.5 61.8571
1350.5 66.1429
1351.5 38.8571
1352.5 59.1429
1353.5 0.285722
1354.5 75.1429
1355.5 52.7143
1356.5 43.4286
1357.5 61.1429
1358.5 121.571
1359.5 68
1360.5 60.7143
1361.5 46.5714
1362.5 -29.5714
1363.5 17.7143
1364.5 13.8571
1365.5 -11.2857
1366.5 41.1429
1367.5 101.571
1368.5 5.42858
1369.5 -33
1370.5 35.1429
1371.5 118.429
1372.5 7.85715
1373.5 1.28572
1374.5 91.8571
1375.5 46.2857
1376.5 130.857
1377.5 38.8571
1378.5 40
1379.5 6.57143
1380.5 72.4286
1381.5 70.2857
1382.5 35.8571
1383.5 97.7143
1384.5 12.4286
1385.5 66.4286
1386.5 73
1387.5 137
1388.5 174.714
1389.5 101.571
1390.5 76.1429
1391.5 73.1429
1392.5 58.5714
1393.5 31.5714
1394.5 9.00001
1395.5 35.1429
1396.5 11
1397.5 57.5714
1398.5 -30.8571
1399.5 83.5714
1400.5 105
1401.5 74.5714
1402.5 76.2857
1403.5 68.5714
1404.5 60.1429
1405.5 38.5714
1406.5 63.4286
1407.5 119.429
1408.5 21
1409.5 6.71429
1410.5 20.4286
1411.5 38.4286
1412.5 -15.7143
1413.5 62
1414.5 77.4286
1415.5 132
1416.5 93.4286
1417.5 21.5714
1418.5 66
1419.5 8.71429
1420.5 33.7143
1421.5 38.7143
1422.5 37.7143
1423.5 76.7143
1424.5 87.4286
1425.5 160.429
1426.5 377.714
1427.5 1077.57
1428.5 1546.43
1429.5 1175.57
1430.5 449.143
1431.5 139.429
1432.5 61.8571
1433.5 66.5714
1434.5 130.571
1435.5 50.8571
1436.5 70.1429
1437.5 41.4286
1438.5 38.5714
1439.5 96.5714
1440.5 125.286
1441.5 64.2857
1442.5 86
1443.5 122.857
1444.5 28.8571
1445.5 58
1446.5 78
1447.5 66
1448.5 102.429
1449.5 53.8571
1450.5 73.4286
1451.5 78.1429
1452.5 -10.7143
1453.5 89.1429
1454.5 52.5714
1455.5 19
1456.5 -7.57142
