# EGG_ProjY_E2866.0(3.0)_B2834.0(2.0)_B2906.5(1.5)
# X axis : Energy (keV) [Y axis]
# Y axis : Counts/1 keV
# N Bins : 12000
# X Min : 0
# X Max : 12000
# X value at the center of the bins
0.5 0
1.5 0
2.5 0
3.5 0
4.5 0
5.5 4.57143
6.5 4.28571
7.5 4.85714
8.5 3
9.5 17.1429
10.5 5.85714
11.5 4.71429
12.5 30.5714
13.5 15.4286
14.5 15.8571
15.5 -6.42857
16.5 24.4286
17.5 -3.85715
18.5 -6.28572
19.5 -3.57143
20.5 14
21.5 62.2857
22.5 -0.571435
23.5 67.1429
24.5 27.4286
25.5 34.4286
26.5 81.2857
27.5 69.7143
28.5 107.286
29.5 72.5714
30.5 -45.5714
31.5 132.571
32.5 90.7143
33.5 76.1428
34.5 77.2857
35.5 128.857
36.5 59.7143
37.5 159.714
38.5 59.2857
39.5 35
40.5 188
41.5 116
42.5 5.99997
43.5 56.7143
44.5 43
45.5 149.714
46.5 79.1428
47.5 86.4286
48.5 140
49.5 12.7143
50.5 202.857
51.5 153.429
52.5 119.714
53.5 252.143
54.5 133.286
55.5 276.714
56.5 83.7143
57.5 198.857
58.5 210
59.5 330.571
60.5 289.857
61.5 208.714
62.5 170.429
63.5 129.571
64.5 128.286
65.5 158.714
66.5 312.571
67.5 215.857
68.5 256.714
69.5 176.714
70.5 65.5714
71.5 87.2857
72.5 153.143
73.5 122.714
74.5 337.143
75.5 372.714
76.5 292.286
77.5 319.857
78.5 344.143
79.5 77.4285
80.5 250.714
81.5 195.429
82.5 195.286
83.5 142.857
84.5 187.429
85.5 216.143
86.5 84.7143
87.5 162.143
88.5 133
89.5 149.857
90.5 187.143
91.5 157
92.5 198.714
93.5 123.571
94.5 98.7143
95.5 58.4286
96.5 21.4286
97.5 159.714
98.5 104.286
99.5 79.1428
100.5 49.8571
101.5 159.571
102.5 54.5714
103.5 137.429
104.5 66.7143
105.5 93.8571
106.5 236.286
107.5 161.714
108.5 106.571
109.5 190.143
110.5 120.571
111.5 111.429
112.5 46.8571
113.5 2.99998
114.5 55.1428
115.5 245.286
116.5 179.714
117.5 251.571
118.5 105.429
119.5 235.143
120.5 116.429
121.5 49.7143
122.5 -62.1429
123.5 166.857
124.5 158
125.5 175.286
126.5 132.286
127.5 125.429
128.5 176
129.5 272.429
130.5 23.2857
131.5 36.2857
132.5 81.8571
133.5 140.571
134.5 178.286
135.5 294.286
136.5 423.571
137.5 354
138.5 262.571
139.5 409.286
140.5 267.714
141.5 181.571
142.5 132.143
143.5 111.143
144.5 243.571
145.5 81.5714
146.5 321.857
147.5 41.5714
148.5 311.714
149.5 259.286
150.5 299.571
151.5 232.429
152.5 248.714
153.5 216
154.5 223.143
155.5 289.571
156.5 275.429
157.5 245.286
158.5 237.429
159.5 129.143
160.5 310.286
161.5 294.571
162.5 41.7143
163.5 172.286
164.5 223.429
165.5 248.571
166.5 283
167.5 181.714
168.5 232
169.5 364.143
170.5 413
171.5 357
172.5 426.143
173.5 307.571
174.5 339
175.5 444
176.5 305.857
177.5 245.714
178.5 105.429
179.5 140.714
180.5 188
181.5 304.714
182.5 233
183.5 344.857
184.5 414.286
185.5 432.571
186.5 217.143
187.5 327
188.5 370.571
189.5 249.286
190.5 173
191.5 250.857
192.5 47.8571
193.5 235.429
194.5 284
195.5 270.714
196.5 168.286
197.5 262
198.5 62.5714
199.5 153.143
200.5 40.7143
201.5 -38
202.5 -195.571
203.5 -232.714
204.5 -95.8572
205.5 75.5714
206.5 152.571
207.5 181.143
208.5 291.571
209.5 270.714
210.5 313.857
211.5 182.571
212.5 226.857
213.5 236.857
214.5 142.714
215.5 101.571
216.5 50.8571
217.5 112.143
218.5 201.714
219.5 261.143
220.5 285
221.5 87.8571
222.5 134.143
223.5 291.714
224.5 227
225.5 132.143
226.5 129.286
227.5 79.2857
228.5 349.143
229.5 302.857
230.5 322
231.5 186.571
232.5 319.429
233.5 353.571
234.5 269.143
235.5 259.571
236.5 90.2857
237.5 394.571
238.5 172.571
239.5 159.143
240.5 217.714
241.5 274.286
242.5 159.571
243.5 281.143
244.5 313.143
245.5 406.286
246.5 453
247.5 401.143
248.5 248.286
249.5 380.714
250.5 370.857
251.5 369.571
252.5 261.714
253.5 276.714
254.5 232
255.5 218.714
256.5 354.143
257.5 385.286
258.5 220.571
259.5 150.714
260.5 193.714
261.5 282.571
262.5 57.8571
263.5 82.5714
264.5 58.8571
265.5 93.2857
266.5 123.143
267.5 153.571
268.5 152.143
269.5 151.571
270.5 -21.8572
271.5 186.286
272.5 72.4285
273.5 164.429
274.5 109.571
275.5 97.4285
276.5 174.429
277.5 139.714
278.5 63.5714
279.5 33.7143
280.5 49.2857
281.5 129.571
282.5 212.143
283.5 210.714
284.5 192.143
285.5 235.571
286.5 226.429
287.5 168.429
288.5 178.286
289.5 219.286
290.5 195.143
291.5 230.714
292.5 227.571
293.5 227
294.5 133.714
295.5 108.143
296.5 126.429
297.5 98.2857
298.5 120
299.5 95.1428
300.5 107.429
301.5 64.8571
302.5 179
303.5 270.143
304.5 302.857
305.5 276
306.5 196.286
307.5 385.571
308.5 277.143
309.5 234.857
310.5 341.714
311.5 255
312.5 165.857
313.5 178.429
314.5 180
315.5 159.857
316.5 130.714
317.5 126
318.5 255.857
319.5 199.286
320.5 264.571
321.5 190.857
322.5 240
323.5 237
324.5 195.286
325.5 26
326.5 270.714
327.5 223.286
328.5 129.857
329.5 130.714
330.5 253.857
331.5 251.571
332.5 381.857
333.5 336.857
334.5 299.714
335.5 261
336.5 238.429
337.5 370.143
338.5 286.857
339.5 194.571
340.5 151
341.5 152.714
342.5 274.143
343.5 147.571
344.5 196.714
345.5 150.571
346.5 174.429
347.5 159.143
348.5 124.571
349.5 183.286
350.5 123.143
351.5 115.714
352.5 101
353.5 148.143
354.5 62.4286
355.5 168
356.5 139.429
357.5 42
358.5 149.571
359.5 45.7143
360.5 130.429
361.5 174.143
362.5 140.143
363.5 187.714
364.5 113
365.5 138
366.5 131.429
367.5 117
368.5 238
369.5 97.8571
370.5 184.429
371.5 166.714
372.5 234.143
373.5 370.429
374.5 280.286
375.5 244.857
376.5 292.143
377.5 322
378.5 247
379.5 239.857
380.5 127.571
381.5 173.286
382.5 185
383.5 166.429
384.5 144.429
385.5 145.286
386.5 70.2857
387.5 45.4286
388.5 183.714
389.5 166.143
390.5 128.286
391.5 87.2857
392.5 186.571
393.5 192.429
394.5 164.714
395.5 183.429
396.5 91.5714
397.5 147.857
398.5 160.143
399.5 117.286
400.5 96.4286
401.5 97.2857
402.5 143.571
403.5 648.143
404.5 513.143
405.5 186.571
406.5 3.71427
407.5 21
408.5 51.8571
409.5 24.1428
410.5 84.4286
411.5 137.571
412.5 35
413.5 72.7143
414.5 19.2857
415.5 19.8571
416.5 114.429
417.5 47.4286
418.5 88.7143
419.5 137.857
420.5 112.286
421.5 103
422.5 78.4286
423.5 99.4286
424.5 130.714
425.5 56.5714
426.5 -8.57144
427.5 210.286
428.5 64.1428
429.5 90
430.5 177.429
431.5 110.571
432.5 145.286
433.5 346.286
434.5 279
435.5 246.143
436.5 299.143
437.5 180.143
438.5 211.857
439.5 188.714
440.5 132.286
441.5 158.714
442.5 81
443.5 154.143
444.5 76.7143
445.5 109.857
446.5 162.286
447.5 78.2857
448.5 303.143
449.5 116.857
450.5 119.143
451.5 27.5714
452.5 208
453.5 193.571
454.5 246
455.5 146.429
456.5 115.714
457.5 116.857
458.5 231.429
459.5 155
460.5 64.1428
461.5 36.5714
462.5 -58.5714
463.5 43.5714
464.5 31.7143
465.5 50.7143
466.5 45.5714
467.5 141
468.5 238.571
469.5 184.143
470.5 152.143
471.5 231.429
472.5 176.857
473.5 101
474.5 93.2857
475.5 119.571
476.5 61.2857
477.5 65.2857
478.5 70.7143
479.5 91.5714
480.5 7.42856
481.5 47.8571
482.5 163.857
483.5 172
484.5 107.286
485.5 108.571
486.5 133.429
487.5 79.5714
488.5 118.571
489.5 104.571
490.5 104.286
491.5 150.429
492.5 112.286
493.5 58.7143
494.5 120.429
495.5 86.8571
496.5 88.7143
497.5 146.714
498.5 98.8571
499.5 137.143
500.5 188.286
501.5 182.857
502.5 98.1428
503.5 173
504.5 171.286
505.5 165.429
506.5 206.286
507.5 316.714
508.5 665
509.5 1311.43
510.5 1355.14
511.5 1564.57
512.5 855.286
513.5 523
514.5 183
515.5 124.429
516.5 96.8571
517.5 123.857
518.5 0.999988
519.5 -70.5714
520.5 -25
521.5 26.4286
522.5 -32.5714
523.5 10.4286
524.5 102.571
525.5 76.2857
526.5 126.429
527.5 119.286
528.5 45.1428
529.5 49
530.5 103.857
531.5 89.2857
532.5 18.8571
533.5 44.1428
534.5 86.4286
535.5 95.1428
536.5 53.4286
537.5 99
538.5 42.5714
539.5 37.8571
540.5 19.4286
541.5 28.2857
542.5 -3.28572
543.5 -30
544.5 75.8571
545.5 51.7143
546.5 46.4286
547.5 105.429
548.5 78.8571
549.5 58.8571
550.5 93.4286
551.5 94.2857
552.5 121.571
553.5 52.1428
554.5 112.857
555.5 80.8571
556.5 152.429
557.5 153.714
558.5 248.429
559.5 236.143
560.5 274.143
561.5 380
562.5 269.857
563.5 231.286
564.5 96.4286
565.5 130
566.5 163.571
567.5 118
568.5 96.1428
569.5 125
570.5 81.4286
571.5 17.2857
572.5 130
573.5 33.2857
574.5 120.714
575.5 97.4286
576.5 98.7143
577.5 111.286
578.5 25.4286
579.5 223.714
580.5 117.571
581.5 164.857
582.5 324.286
583.5 184.714
584.5 284.429
585.5 254.143
586.5 109.714
587.5 88.5714
588.5 105.286
589.5 16.2857
590.5 50.7143
591.5 -24
592.5 -79.5714
593.5 -20.5714
594.5 35
595.5 115
596.5 64.7143
597.5 55.5714
598.5 100.571
599.5 40.7143
600.5 51.1428
601.5 64.2857
602.5 25.7143
603.5 78.8571
604.5 98.7143
605.5 91.5714
606.5 38.4286
607.5 131.571
608.5 -31.5714
609.5 18.8571
610.5 114.286
611.5 -7.86781e-06
612.5 54.5714
613.5 54.7143
614.5 9.85713
615.5 -53.1429
616.5 98.1428
617.5 114.857
618.5 19.7143
619.5 100.429
620.5 9.85713
621.5 141.429
622.5 111.429
623.5 125.714
624.5 183.857
625.5 103.571
626.5 160.857
627.5 74.4286
628.5 128
629.5 -3.14287
630.5 152.714
631.5 113.857
632.5 75.8571
633.5 40
634.5 137.429
635.5 99.2857
636.5 134
637.5 170
638.5 130
639.5 88.2857
640.5 92.7143
641.5 96
642.5 178.286
643.5 89.7143
644.5 124.143
645.5 62.8571
646.5 94.8571
647.5 124
648.5 33.2857
649.5 -17.7143
650.5 151.857
651.5 144.571
652.5 56.5714
653.5 9.85713
654.5 76.5714
655.5 29.5714
656.5 42.8571
657.5 -24.8572
658.5 57.8571
659.5 50.4286
660.5 235.857
661.5 50.5714
662.5 167
663.5 245
664.5 471
665.5 573.571
666.5 284.571
667.5 188
668.5 89.5714
669.5 68.5714
670.5 116.714
671.5 66.7143
672.5 57.4286
673.5 -21.4286
674.5 56.7143
675.5 73.1428
676.5 129
677.5 87
678.5 89.7143
679.5 51
680.5 -17.8572
681.5 43.1428
682.5 119
683.5 30.1428
684.5 36.2857
685.5 107.143
686.5 72.4286
687.5 116.143
688.5 82.1429
689.5 99.1429
690.5 139
691.5 51
692.5 46.4286
693.5 7.28571
694.5 47.7143
695.5 -7.71429
696.5 75.1428
697.5 41.2857
698.5 38.1428
699.5 74.1429
700.5 67.2857
701.5 91.2857
702.5 51.4286
703.5 53.2857
704.5 38.4286
705.5 54.4286
706.5 23.7143
707.5 119.143
708.5 42.5714
709.5 21
710.5 73.8571
711.5 43.7143
712.5 17.1428
713.5 98.8571
714.5 76.5714
715.5 157.714
716.5 106.143
717.5 123.429
718.5 76
719.5 58.1429
720.5 61.1428
721.5 93.5714
722.5 29.4286
723.5 68.4286
724.5 94.5714
725.5 116.714
726.5 80
727.5 44.8571
728.5 106.571
729.5 77
730.5 29.8571
731.5 7.99999
732.5 24.1428
733.5 84.2857
734.5 92
735.5 96.5714
736.5 64
737.5 106.429
738.5 106.286
739.5 59.7143
740.5 32.2857
741.5 81.1429
742.5 66
743.5 111.714
744.5 155.286
745.5 98.7143
746.5 69.1428
747.5 38.4286
748.5 34
749.5 96.5714
750.5 104.571
751.5 80.5714
752.5 89.2857
753.5 30.4286
754.5 112.286
755.5 90.1429
756.5 102.286
757.5 65.7143
758.5 157.571
759.5 343
760.5 847
761.5 866.286
762.5 501.857
763.5 197
764.5 68
765.5 115.143
766.5 126.571
767.5 84.8571
768.5 105
769.5 28.8571
770.5 68.1429
771.5 65.2857
772.5 73.2857
773.5 109.571
774.5 111.286
775.5 74.5714
776.5 69.4286
777.5 96.5714
778.5 -13.1429
779.5 147.571
780.5 65.7143
781.5 115.571
782.5 76.8571
783.5 57.8571
784.5 100.571
785.5 85.2857
786.5 52.1428
787.5 143.429
788.5 67.1428
789.5 92.1428
790.5 59.4286
791.5 132.571
792.5 105.714
793.5 82.1429
794.5 81.5714
795.5 114.143
796.5 92.2857
797.5 83
798.5 5.85714
799.5 32.5714
800.5 63
801.5 47.1429
802.5 126.143
803.5 96.5714
804.5 116.571
805.5 103
806.5 172.571
807.5 64.5714
808.5 69.1428
809.5 66.4286
810.5 51.4286
811.5 46.4286
812.5 148.857
813.5 61.8571
814.5 81.8571
815.5 90.1429
816.5 126.429
817.5 64.1429
818.5 164.429
819.5 81.2857
820.5 106.857
821.5 95.4286
822.5 48.1428
823.5 71.8571
824.5 37.4286
825.5 107.714
826.5 69.7143
827.5 78.2857
828.5 96.7143
829.5 96.2857
830.5 23.8571
831.5 116.429
832.5 69.1428
833.5 78.5714
834.5 -1.85715
835.5 94.2857
836.5 98.2857
837.5 66.5714
838.5 72.8571
839.5 64.8571
840.5 110.286
841.5 -6.71429
842.5 149.286
843.5 44.1428
844.5 90.4286
845.5 139.286
846.5 47.5714
847.5 87.5714
848.5 52.4286
849.5 49.5714
850.5 102.857
851.5 60.7143
852.5 134.143
853.5 101.286
854.5 78.8571
855.5 90.8571
856.5 -6.57144
857.5 94.7143
858.5 68.2857
859.5 57.7143
860.5 33.8571
861.5 -22.2857
862.5 69.5714
863.5 18.8571
864.5 104.571
865.5 -2.57144
866.5 109.571
867.5 115.857
868.5 214.571
869.5 63.8571
870.5 96.5714
871.5 124.429
872.5 88.2857
873.5 -4.71429
874.5 28.8571
875.5 54.8571
876.5 73.7143
877.5 22.8571
878.5 155
879.5 197.143
880.5 114.571
881.5 76.2857
882.5 94.7143
883.5 131.857
884.5 21
885.5 112.714
886.5 52.8571
887.5 89.4286
888.5 111.286
889.5 93.5714
890.5 68.5714
891.5 115
892.5 95.2857
893.5 74.8571
894.5 109.571
895.5 98.2857
896.5 64
897.5 87.8571
898.5 126.286
899.5 113.714
900.5 79.5714
901.5 58.4286
902.5 35.4286
903.5 86.2857
904.5 82.8571
905.5 103
906.5 84.2857
907.5 18.5714
908.5 75.8571
909.5 17.7143
910.5 81
911.5 107.286
912.5 61.8571
913.5 84.7143
914.5 73.7143
915.5 97.1428
916.5 82.1428
917.5 68
918.5 89.5714
919.5 105.429
920.5 29.2857
921.5 118
922.5 94.5714
923.5 78.1428
924.5 11.5714
925.5 44.2857
926.5 76.2857
927.5 81.7143
928.5 106.429
929.5 64.2857
930.5 47.2857
931.5 80.2857
932.5 47.5714
933.5 31
934.5 74.4286
935.5 71
936.5 62.2857
937.5 95
938.5 57.4286
939.5 191.429
940.5 95.2857
941.5 202.143
942.5 57.8571
943.5 134.429
944.5 65.1428
945.5 108.143
946.5 51.4286
947.5 42.1428
948.5 82.8571
949.5 90.4286
950.5 99.4286
951.5 38.8571
952.5 95.7143
953.5 -6.00001
954.5 103
955.5 36.8571
956.5 91.1429
957.5 75.7143
958.5 86.1429
959.5 86.1429
960.5 26.1428
961.5 100.286
962.5 -20.1429
963.5 61.2857
964.5 129.571
965.5 -120.857
966.5 -135.571
967.5 -84.4286
968.5 28
969.5 104
970.5 80.7143
971.5 21.8571
972.5 45
973.5 63.2857
974.5 27.7143
975.5 115
976.5 22
977.5 125.714
978.5 11.4286
979.5 37.2857
980.5 112.429
981.5 74.1429
982.5 61.4286
983.5 127
984.5 86.7143
985.5 79.7143
986.5 54.7143
987.5 77.1429
988.5 47.2857
989.5 38
990.5 132.857
991.5 108.571
992.5 2.42857
993.5 -2.57143
994.5 61.2857
995.5 39.8571
996.5 39.5714
997.5 90.8571
998.5 108.143
999.5 233.714
1000.5 536.857
1001.5 1315.43
1002.5 1089.71
1003.5 477.857
1004.5 158.857
1005.5 133.429
1006.5 95.7143
1007.5 38.7143
1008.5 19.1429
1009.5 54.8571
1010.5 88.4286
1011.5 37.2857
1012.5 16.8571
1013.5 45.5714
1014.5 48.7143
1015.5 -27.5714
1016.5 49.1429
1017.5 -11
1018.5 4.28571
1019.5 45.5714
1020.5 -22
1021.5 30.8571
1022.5 0.571422
1023.5 62.5714
1024.5 115.286
1025.5 58.5714
1026.5 64.1429
1027.5 59
1028.5 55.4286
1029.5 57
1030.5 -45.2857
1031.5 43.7143
1032.5 109
1033.5 81
1034.5 11.1429
1035.5 72.5714
1036.5 51.4286
1037.5 18.2857
1038.5 133.143
1039.5 54.8571
1040.5 50
1041.5 40.5714
1042.5 29.7143
1043.5 85.5714
1044.5 52.2857
1045.5 150.571
1046.5 155.714
1047.5 84.1429
1048.5 80.4286
1049.5 139.143
1050.5 152.286
1051.5 141.571
1052.5 60
1053.5 11.8571
1054.5 13.1429
1055.5 9.42857
1056.5 78.4286
1057.5 43.4286
1058.5 -2.28572
1059.5 45.7143
1060.5 70
1061.5 23.2857
1062.5 73.7143
1063.5 41.2857
1064.5 86.5714
1065.5 -1
1066.5 31
1067.5 2.28571
1068.5 51.8571
1069.5 57.7143
1070.5 28.5714
1071.5 -35.4286
1072.5 50
1073.5 125
1074.5 100
1075.5 41.1428
1076.5 17.7143
1077.5 26.2857
1078.5 69
1079.5 57.7143
1080.5 31.2857
1081.5 37
1082.5 24
1083.5 36.4286
1084.5 7.71428
1085.5 88.7143
1086.5 29.7143
1087.5 46.1429
1088.5 60.4286
1089.5 48.2857
1090.5 33.4286
1091.5 67.8571
1092.5 73.7143
1093.5 39.7143
1094.5 2.57142
1095.5 -0.142861
1096.5 71.2857
1097.5 16.5714
1098.5 104.857
1099.5 49.5714
1100.5 69.4286
1101.5 82.8571
1102.5 51.7143
1103.5 95
1104.5 70
1105.5 82.1429
1106.5 41.4286
1107.5 18.8571
1108.5 48.8571
1109.5 -0.142861
1110.5 46.5714
1111.5 85.1429
1112.5 -0.428575
1113.5 29.4286
1114.5 61.5714
1115.5 33.1429
1116.5 100
1117.5 34.8571
1118.5 72.7143
1119.5 45.8571
1120.5 102.571
1121.5 15
1122.5 43.2857
1123.5 186.143
1124.5 522.714
1125.5 1124.71
1126.5 1337.43
1127.5 909.714
1128.5 239
1129.5 84.2857
1130.5 36.4286
1131.5 -22.7143
1132.5 40.1429
1133.5 -0.714289
1134.5 46.1429
1135.5 61.2857
1136.5 28.1429
1137.5 13.4286
1138.5 2.42857
1139.5 22.2857
1140.5 39.1429
1141.5 35.5714
1142.5 34.5714
1143.5 -5.71429
1144.5 35.1429
1145.5 -2.14286
1146.5 31.8571
1147.5 64.8571
1148.5 31.4286
1149.5 13.8571
1150.5 74
1151.5 2.71428
1152.5 88
1153.5 104.429
1154.5 88.4285
1155.5 1154.57
1156.5 2707.29
1157.5 2653.29
1158.5 1041.71
1159.5 247.286
1160.5 -7.14286
1161.5 46.5714
1162.5 112.714
1163.5 298
1164.5 521
1165.5 478.286
1166.5 208.143
1167.5 96
1168.5 32.4286
1169.5 0.999997
1170.5 36.8571
1171.5 34.8571
1172.5 29.7143
1173.5 36.1429
1174.5 7.71428
1175.5 45.7143
1176.5 31.5714
1177.5 -8.71429
1178.5 54.4286
1179.5 -39.5714
1180.5 22.7143
1181.5 42.5714
1182.5 69.7143
1183.5 40.1429
1184.5 -9.85715
1185.5 70.7143
1186.5 21.1429
1187.5 35.2857
1188.5 33.4286
1189.5 19.2857
1190.5 46.4286
1191.5 -32.7143
1192.5 -16.4286
1193.5 6.42857
1194.5 52.2857
1195.5 7.71428
1196.5 24.5714
1197.5 39.8571
1198.5 25.1429
1199.5 -5.85715
1200.5 32.8571
1201.5 21.7143
1202.5 52.5714
1203.5 6.42857
1204.5 29
1205.5 35.4286
1206.5 29.1429
1207.5 28.2857
1208.5 6
1209.5 10.1429
1210.5 8.71428
1211.5 39.8571
1212.5 39.5714
1213.5 50.2857
1214.5 53.2857
1215.5 22.4286
1216.5 21.5714
1217.5 33.8571
1218.5 -22.2857
1219.5 25
1220.5 45.4286
1221.5 49.2857
1222.5 36
1223.5 62.1429
1224.5 31
1225.5 17.5714
1226.5 14.4286
1227.5 30.7143
1228.5 10.5714
1229.5 33.8571
1230.5 40.5714
1231.5 21.4286
1232.5 28.1429
1233.5 21.4286
1234.5 27.4286
1235.5 24
1236.5 -19.8571
1237.5 -3.14286
1238.5 33.7143
1239.5 2.85714
1240.5 45
1241.5 -19.4286
1242.5 26.4286
1243.5 31.5714
1244.5 46.1429
1245.5 20.8571
1246.5 30.4286
1247.5 21.7143
1248.5 12.7143
1249.5 10.7143
1250.5 -3.14286
1251.5 9.85714
1252.5 10.1429
1253.5 -17.1429
1254.5 17
1255.5 40.4286
1256.5 36.8571
1257.5 13.8571
1258.5 3.28571
1259.5 18.1429
1260.5 -33.8571
1261.5 18.5714
1262.5 -16.7143
1263.5 -1.28572
1264.5 9.42857
1265.5 10.5714
1266.5 16.8571
1267.5 15.7143
1268.5 20.2857
1269.5 58.7143
1270.5 12.5714
1271.5 5.42857
1272.5 19
1273.5 11.1429
1274.5 13.4286
1275.5 12.7143
1276.5 19.4286
1277.5 46.2857
1278.5 4
1279.5 55
1280.5 50.7143
1281.5 7.28571
1282.5 38
1283.5 20.5714
1284.5 -20.4286
1285.5 24.1429
1286.5 58
1287.5 36.4286
1288.5 8.71428
1289.5 52
1290.5 9.85714
1291.5 0.285712
1292.5 32.2857
1293.5 45.8571
1294.5 25.4286
1295.5 18.7143
1296.5 15.7143
1297.5 42.7143
1298.5 15.4286
1299.5 -25.8571
1300.5 3.71428
1301.5 28.8571
1302.5 7.57143
1303.5 29.1429
1304.5 45.8571
1305.5 24
1306.5 6.85714
1307.5 46
1308.5 12.8571
1309.5 30
1310.5 49.4286
1311.5 -7.71429
1312.5 -25.5714
1313.5 28
1314.5 34.5714
1315.5 39.5714
1316.5 40.8571
1317.5 -11
1318.5 42.2857
1319.5 11.7143
1320.5 -6.85715
1321.5 23.1429
1322.5 41.1429
1323.5 6.85714
1324.5 19.2857
1325.5 34.8571
1326.5 29
1327.5 10.7143
1328.5 24.8571
1329.5 -15.2857
1330.5 -21.2857
1331.5 15.1429
1332.5 32.1429
1333.5 -12.4286
1334.5 -2.14286
1335.5 21.7143
1336.5 -12.8571
1337.5 28.5714
1338.5 31.1429
1339.5 10.4286
1340.5 8.42857
1341.5 25.2857
1342.5 21.5714
1343.5 -1.85714
1344.5 44
1345.5 55.7143
1346.5 14.7143
1347.5 -2.08616e-06
1348.5 41.4286
1349.5 11
1350.5 38.1429
1351.5 20.4286
1352.5 43
1353.5 7.85714
1354.5 24.5714
1355.5 6.71428
1356.5 27.5714
1357.5 53.7143
1358.5 38.8571
1359.5 5.28571
1360.5 9
1361.5 9.28571
1362.5 48.4286
1363.5 47.2857
1364.5 27.8571
1365.5 -8.14286
1366.5 -2
1367.5 29.4286
1368.5 15.5714
1369.5 18.1429
1370.5 50.4286
1371.5 38.7143
1372.5 63.7143
1373.5 9.71428
1374.5 21.4286
1375.5 80.5714
1376.5 21.4286
1377.5 27.1429
1378.5 31.8571
1379.5 38.2857
1380.5 31.5714
1381.5 16
1382.5 32.4286
1383.5 -15
1384.5 20.7143
1385.5 17.2857
1386.5 23.8571
1387.5 63.5714
1388.5 8.42857
1389.5 41.7143
1390.5 21.2857
1391.5 23.5714
1392.5 63.7143
1393.5 12.8571
1394.5 1.57143
1395.5 27
1396.5 4.28571
1397.5 48.5714
1398.5 44
1399.5 60.4286
1400.5 4
1401.5 -17
1402.5 -11.8571
1403.5 19.1429
1404.5 0.142855
1405.5 20.7143
1406.5 15.7143
1407.5 12.2857
1408.5 24.2857
1409.5 31.5714
1410.5 -13.5714
1411.5 49
1412.5 -12.7143
1413.5 7.28571
1414.5 -7.14286
1415.5 23.8571
1416.5 0.571426
1417.5 33.1429
1418.5 1.57143
1419.5 14.5714
1420.5 56.7143
1421.5 -0.142859
1422.5 52.4286
1423.5 -8.57143
1424.5 0.571427
1425.5 -7.57143
1426.5 65.8571
1427.5 95.4286
1428.5 126
1429.5 101.857
1430.5 64
1431.5 -6
1432.5 4
1433.5 16.2857
1434.5 -7.28572
1435.5 17.8571
1436.5 39.7143
1437.5 21.4286
1438.5 25.8571
1439.5 32.4286
1440.5 -4.14286
1441.5 37.1429
1442.5 66.4286
1443.5 17.7143
1444.5 -8.28572
1445.5 6.71428
1446.5 46.5714
1447.5 23.7143
