# EGG_ProjY_E3564.0(5.0)_B3551.0(2.0)_B3572.5(1.5)
# X axis : Energy (keV) [Y axis]
# Y axis : Counts/1 keV
# N Bins : 12000
# X Min : 0
# X Max : 12000
# X value at the center of the bins
0.5 0
1.5 0
2.5 0
3.5 0
4.5 0
5.5 -6.71429
6.5 1.42857
7.5 -9.57143
8.5 16.1429
9.5 10.5714
10.5 10.5714
11.5 -23.5714
12.5 9.85714
13.5 -7.57143
14.5 -18.5714
15.5 44.1429
16.5 -4.57144
17.5 35.4286
18.5 35.8571
19.5 7.14284
20.5 -23.7143
21.5 31
22.5 61
23.5 113.143
24.5 101.857
25.5 79.7143
26.5 69.2857
27.5 137.429
28.5 147.143
29.5 272.286
30.5 255.714
31.5 345.571
32.5 109.429
33.5 169.429
34.5 137.286
35.5 191.571
36.5 89
37.5 108.571
38.5 270.286
39.5 71.7142
40.5 260.714
41.5 223.286
42.5 252.714
43.5 153.857
44.5 198.571
45.5 167.286
46.5 250.714
47.5 322.286
48.5 288.429
49.5 166.857
50.5 302.429
51.5 276
52.5 50.1428
53.5 182
54.5 287.714
55.5 289.714
56.5 257.143
57.5 403
58.5 284.571
59.5 305.429
60.5 264.286
61.5 322.714
62.5 175.714
63.5 136.571
64.5 208.143
65.5 168.857
66.5 238.714
67.5 258.571
68.5 286.286
69.5 393.143
70.5 314.286
71.5 329.571
72.5 456.571
73.5 329
74.5 374.428
75.5 367.571
76.5 600.571
77.5 767.143
78.5 528
79.5 196
80.5 273.143
81.5 360.143
82.5 345.857
83.5 277.429
84.5 348.857
85.5 323.143
86.5 321
87.5 453.428
88.5 245.143
89.5 358.857
90.5 365.714
91.5 297.857
92.5 213.143
93.5 164.286
94.5 289.143
95.5 377.857
96.5 192.857
97.5 253.429
98.5 177.857
99.5 400.571
100.5 87.1428
101.5 214.286
102.5 307.286
103.5 325.857
104.5 116.571
105.5 212.571
106.5 169.857
107.5 200.143
108.5 417.571
109.5 193.714
110.5 156.714
111.5 242.429
112.5 360.286
113.5 369.143
114.5 378.143
115.5 275.429
116.5 232.428
117.5 377.857
118.5 343.714
119.5 306.857
120.5 367.714
121.5 98.2856
122.5 277.428
123.5 194.428
124.5 167
125.5 402.143
126.5 416.714
127.5 325.714
128.5 360
129.5 282.286
130.5 338.143
131.5 260.428
132.5 395.857
133.5 295.428
134.5 209.857
135.5 510.571
136.5 401.714
137.5 442.428
138.5 454.286
139.5 260.428
140.5 307.571
141.5 447
142.5 275
143.5 311.143
144.5 302.857
145.5 433.286
146.5 177
147.5 439.714
148.5 329.857
149.5 261
150.5 272
151.5 292.286
152.5 357
153.5 361.714
154.5 245.714
155.5 202.714
156.5 429.571
157.5 436
158.5 271.857
159.5 275.428
160.5 552.714
161.5 527
162.5 264.714
163.5 298.428
164.5 416
165.5 538.714
166.5 189
167.5 400.143
168.5 184.714
169.5 329
170.5 227.571
171.5 126.714
172.5 223
173.5 41.7141
174.5 -279.714
175.5 71.857
176.5 261.857
177.5 237.428
178.5 351
179.5 428.143
180.5 289.286
181.5 734.428
182.5 700.286
183.5 626.714
184.5 660.286
185.5 573.571
186.5 588.428
187.5 537.143
188.5 507.428
189.5 479.143
190.5 328.714
191.5 363.857
192.5 426.286
193.5 198.286
194.5 160
195.5 265.571
196.5 337.428
197.5 326.428
198.5 240
199.5 171.857
200.5 169
201.5 346.428
202.5 291.571
203.5 438.714
204.5 454.286
205.5 369.286
206.5 216.428
207.5 515.714
208.5 467.571
209.5 486
210.5 644.428
211.5 614.428
212.5 298
213.5 356.286
214.5 373.428
215.5 489.428
216.5 296.428
217.5 416.428
218.5 535.286
219.5 514.428
220.5 550
221.5 415
222.5 345.428
223.5 504.714
224.5 301.714
225.5 311.714
226.5 549
227.5 677.286
228.5 503.143
229.5 555.857
230.5 243.571
231.5 552.286
232.5 286.571
233.5 185.143
234.5 462.428
235.5 272.286
236.5 271.714
237.5 468.143
238.5 424
239.5 395.571
240.5 506.571
241.5 695.571
242.5 559.428
243.5 588.571
244.5 608.857
245.5 572.286
246.5 612.286
247.5 448.571
248.5 481.857
249.5 499.857
250.5 343.571
251.5 294.143
252.5 567.143
253.5 245.571
254.5 177.714
255.5 382.714
256.5 85.4285
257.5 402.714
258.5 341
259.5 282.429
260.5 417.429
261.5 469
262.5 486.571
263.5 299.714
264.5 472.571
265.5 473.143
266.5 425.143
267.5 455.143
268.5 381.714
269.5 479.714
270.5 216.286
271.5 130.429
272.5 354.571
273.5 209.714
274.5 275.571
275.5 290.714
276.5 397.714
277.5 338.143
278.5 425.714
279.5 479
280.5 494.571
281.5 278.857
282.5 472.143
283.5 368.571
284.5 333.714
285.5 293.857
286.5 317.286
287.5 249.714
288.5 265.571
289.5 363.429
290.5 309
291.5 277.571
292.5 471.143
293.5 445.286
294.5 402.429
295.5 304.286
296.5 339.571
297.5 325.286
298.5 286.286
299.5 420.571
300.5 543.857
301.5 577.429
302.5 560.714
303.5 462.857
304.5 345.286
305.5 275
306.5 426
307.5 324.857
308.5 505.286
309.5 412.429
310.5 436.286
311.5 380.429
312.5 343.143
313.5 308.143
314.5 390.143
315.5 324.571
316.5 134.571
317.5 289.857
318.5 181.143
319.5 182.571
320.5 150.143
321.5 254.286
322.5 207.143
323.5 117.714
324.5 316.429
325.5 130.429
326.5 193.429
327.5 232.286
328.5 155.571
329.5 200.286
330.5 275.571
331.5 109.857
332.5 273
333.5 300
334.5 349.429
335.5 459.429
336.5 452.714
337.5 494.571
338.5 408.714
339.5 410.714
340.5 316.714
341.5 462.143
342.5 369.714
343.5 546.571
344.5 362.429
345.5 279.571
346.5 262.571
347.5 248.429
348.5 179.286
349.5 17.7142
350.5 143.286
351.5 152.857
352.5 176.286
353.5 195.857
354.5 132.429
355.5 363.714
356.5 370.286
357.5 249.429
358.5 253.714
359.5 450.429
360.5 389.714
361.5 301.143
362.5 463.571
363.5 380.857
364.5 291.857
365.5 175.143
366.5 211.143
367.5 219.571
368.5 273.143
369.5 177.429
370.5 229.714
371.5 142.571
372.5 236.857
373.5 90.1428
374.5 40.5714
375.5 226
376.5 280
377.5 267.143
378.5 339
379.5 302.143
380.5 389.571
381.5 298.286
382.5 235.143
383.5 335.429
384.5 338.857
385.5 198
386.5 296.714
387.5 230
388.5 320.857
389.5 224.143
390.5 335.286
391.5 159.857
392.5 266.143
393.5 325.857
394.5 262.143
395.5 180.429
396.5 169.429
397.5 57.2857
398.5 66.4285
399.5 177.143
400.5 83.8571
401.5 289.857
402.5 109.143
403.5 396.143
404.5 476.428
405.5 395.857
406.5 514.286
407.5 649.571
408.5 469
409.5 429.857
410.5 611.571
411.5 398.429
412.5 517.857
413.5 305.714
414.5 335.714
415.5 253.143
416.5 217.714
417.5 70.1428
418.5 33.4285
419.5 -68.7143
420.5 -62.7143
421.5 -0.714328
422.5 -89.4286
423.5 120
424.5 87.2857
425.5 194.286
426.5 212.857
427.5 175.429
428.5 211.286
429.5 315.857
430.5 415.143
431.5 382.714
432.5 289
433.5 222.857
434.5 362.857
435.5 260.857
436.5 257.143
437.5 154.714
438.5 262.571
439.5 201.286
440.5 199.143
441.5 221
442.5 199.571
443.5 174.857
444.5 269.857
445.5 192
446.5 238.429
447.5 279.429
448.5 208.143
449.5 178.286
450.5 224
451.5 72.2857
452.5 209.714
453.5 245
454.5 125.857
455.5 246
456.5 274.857
457.5 232.143
458.5 252.714
459.5 178.571
460.5 201.429
461.5 302.286
462.5 232.857
463.5 282.571
464.5 394.857
465.5 258
466.5 312.857
467.5 293.429
468.5 334.857
469.5 258.429
470.5 287.857
471.5 299.857
472.5 275.714
473.5 233.571
474.5 288.714
475.5 262.714
476.5 227.429
477.5 131
478.5 198.857
479.5 71.1428
480.5 193
481.5 233.429
482.5 117.143
483.5 177
484.5 175.429
485.5 210.429
486.5 210.143
487.5 236.857
488.5 182.714
489.5 271.286
490.5 259.714
491.5 169.857
492.5 214
493.5 330.286
494.5 240
495.5 151
496.5 73.8571
497.5 173.857
498.5 152.143
499.5 164.857
500.5 24.4285
501.5 324.429
502.5 99.2857
503.5 191
504.5 180.857
505.5 224.714
506.5 244.286
507.5 202.286
508.5 277.286
509.5 567
510.5 982.285
511.5 1379.14
512.5 841.714
513.5 465.428
514.5 131.429
515.5 212.714
516.5 301.571
517.5 296.286
518.5 146.857
519.5 267.143
520.5 329.857
521.5 93.4285
522.5 126.429
523.5 193.143
524.5 144.857
525.5 321.857
526.5 196
527.5 210.714
528.5 227.143
529.5 202.714
530.5 262.714
531.5 196.857
532.5 206.857
533.5 282.143
534.5 217.857
535.5 179.429
536.5 240.143
537.5 155.286
538.5 233.571
539.5 200.429
540.5 219.143
541.5 216.857
542.5 240
543.5 222.143
544.5 142
545.5 226.714
546.5 281.571
547.5 229.857
548.5 238
549.5 248.571
550.5 263.857
551.5 186.286
552.5 273.571
553.5 184.286
554.5 152.571
555.5 232.571
556.5 208.714
557.5 141.571
558.5 250.286
559.5 193.714
560.5 239.571
561.5 176.714
562.5 183.714
563.5 247.286
564.5 155.429
565.5 206
566.5 230.286
567.5 149.714
568.5 221.429
569.5 130.857
570.5 125.714
571.5 245.571
572.5 174.286
573.5 92.1428
574.5 156.571
575.5 159
576.5 152.286
577.5 30.2857
578.5 207.571
579.5 184.571
580.5 214
581.5 142.571
582.5 192.571
583.5 191
584.5 135.143
585.5 237
586.5 223.429
587.5 207.571
588.5 252
589.5 223.143
590.5 222.429
591.5 156.143
592.5 156
593.5 160.286
594.5 136.143
595.5 256.714
596.5 64.5714
597.5 210.143
598.5 184
599.5 165.286
600.5 246.429
601.5 186.857
602.5 338
603.5 190.143
604.5 291.429
605.5 197.857
606.5 306.714
607.5 98
608.5 249.286
609.5 203.286
610.5 229.714
611.5 186.429
612.5 131.714
613.5 138.571
614.5 246
615.5 166.286
616.5 88
617.5 71.8571
618.5 176.571
619.5 171.429
620.5 195.429
621.5 199.714
622.5 187.714
623.5 137.714
624.5 152.857
625.5 222.857
626.5 134.286
627.5 431.857
628.5 458.286
629.5 475.143
630.5 198.143
631.5 94
632.5 209.286
633.5 144.857
634.5 141.429
635.5 194
636.5 313.857
637.5 374.429
638.5 349.857
639.5 277
640.5 247
641.5 238.429
642.5 321.143
643.5 303.429
644.5 285.143
645.5 366
646.5 338.857
647.5 253.286
648.5 254.571
649.5 298.143
650.5 330.429
651.5 303
652.5 234.571
653.5 238.286
654.5 240.143
655.5 270.571
656.5 183.571
657.5 155.571
658.5 160.286
659.5 110.286
660.5 174.857
661.5 64
662.5 203.571
663.5 323
664.5 119.143
665.5 152.143
666.5 112
667.5 51.8571
668.5 221.143
669.5 187
670.5 241.143
671.5 152.571
672.5 190.714
673.5 149
674.5 172.143
675.5 156.429
676.5 232.571
677.5 250.857
678.5 246.571
679.5 118.571
680.5 157.714
681.5 216.714
682.5 204.143
683.5 88.1428
684.5 195.286
685.5 181.143
686.5 205.286
687.5 180.571
688.5 216.714
689.5 195.429
690.5 138.714
691.5 215.571
692.5 181.857
693.5 208.286
694.5 179.714
695.5 166
696.5 242
697.5 211
698.5 233.857
699.5 260.429
700.5 183.857
701.5 259.286
702.5 214.429
703.5 175.429
704.5 206.143
705.5 153.857
706.5 207.571
707.5 163.571
708.5 186
709.5 97
710.5 258.857
711.5 228.143
712.5 160.857
713.5 123.857
714.5 188.429
715.5 250.286
716.5 277
717.5 214.286
718.5 229.143
719.5 158
720.5 206.143
721.5 180.714
722.5 136.429
723.5 209.714
724.5 178.571
725.5 237.143
726.5 207.429
727.5 189.857
728.5 229.714
729.5 237.286
730.5 187
731.5 178.857
732.5 210
733.5 161
734.5 189.714
735.5 174.857
736.5 147.714
737.5 164.143
738.5 195.857
739.5 252.286
740.5 294.857
741.5 266.286
742.5 157.429
743.5 206.429
744.5 132.714
745.5 243.286
746.5 159.143
747.5 204.857
748.5 126.571
749.5 271.429
750.5 192.857
751.5 289.286
752.5 229.857
753.5 163.429
754.5 222.714
755.5 205.286
756.5 226.429
757.5 224.429
758.5 201.286
759.5 266.143
760.5 325.286
761.5 222.286
762.5 297.429
763.5 225
764.5 218.571
765.5 80.4286
766.5 131
767.5 111.143
768.5 207.857
769.5 65.8571
770.5 141.571
771.5 254.286
772.5 192.857
773.5 145.143
774.5 220.857
775.5 187.714
776.5 178.143
777.5 231
778.5 199.429
779.5 219.857
780.5 161.286
781.5 187
782.5 240.857
783.5 188.429
784.5 230.286
785.5 309.429
786.5 330.429
787.5 339.571
788.5 247.714
789.5 201.571
790.5 223.714
791.5 136.857
792.5 169.143
793.5 269.714
794.5 183.857
795.5 173.714
796.5 225.571
797.5 226.286
798.5 154.714
799.5 149.857
800.5 254.571
801.5 140.571
802.5 208
803.5 165.143
804.5 216.857
805.5 271.571
806.5 183.857
807.5 241.714
808.5 252
809.5 227.857
810.5 160.714
811.5 337.143
812.5 310.714
813.5 237.857
814.5 282.429
815.5 246.857
816.5 247.429
817.5 232.571
818.5 274.857
819.5 296.714
820.5 384.571
821.5 365.857
822.5 232.286
823.5 256.714
824.5 198
825.5 181.286
826.5 227.857
827.5 238.571
828.5 203.857
829.5 254.571
830.5 219.714
831.5 222.857
832.5 193.429
833.5 175.286
834.5 280
835.5 199
836.5 261.571
837.5 263.429
838.5 208.286
839.5 331.286
840.5 226.857
841.5 270
842.5 246.429
843.5 187.143
844.5 229.571
845.5 258.714
846.5 173.714
847.5 231.714
848.5 269.143
849.5 230.143
850.5 290
851.5 190.714
852.5 221.857
853.5 198.714
854.5 257.143
855.5 282.714
856.5 240.857
857.5 198.857
858.5 256.571
859.5 269.857
860.5 274.571
861.5 238
862.5 258.429
863.5 249.429
864.5 295.857
865.5 193.571
866.5 259.857
867.5 282.714
868.5 403.143
869.5 473.143
870.5 403.571
871.5 225.143
872.5 295.143
873.5 275.286
874.5 221.857
875.5 230.429
876.5 388.143
877.5 311.571
878.5 311.857
879.5 251
880.5 206.571
881.5 81.4285
882.5 220.429
883.5 204.571
884.5 207.143
885.5 316
886.5 318.857
887.5 259.286
888.5 218
889.5 266.714
890.5 278.143
891.5 276
892.5 304.571
893.5 281.857
894.5 350.857
895.5 350.286
896.5 342.714
897.5 258.286
898.5 332.857
899.5 266.429
900.5 406.286
901.5 311.571
902.5 373.429
903.5 220.714
904.5 259.143
905.5 280.143
906.5 257.714
907.5 234.429
908.5 254.714
909.5 327
910.5 296.143
911.5 334.429
912.5 259.714
913.5 169.143
914.5 320.857
915.5 352.857
916.5 382.143
917.5 292.857
918.5 324.857
919.5 315.429
920.5 213.429
921.5 159.571
922.5 347.714
923.5 249.857
924.5 185.286
925.5 178.714
926.5 282.857
927.5 163.143
928.5 344.857
929.5 384.714
930.5 228
931.5 266.143
932.5 283.286
933.5 343.286
934.5 254.286
935.5 246.714
936.5 305.286
937.5 294.857
938.5 283.571
939.5 305.714
940.5 324.429
941.5 288.714
942.5 290.429
943.5 227.571
944.5 259.429
945.5 220
946.5 331.857
947.5 265.429
948.5 211.286
949.5 78.7143
950.5 121.143
951.5 208.143
952.5 150.143
953.5 253
954.5 158
955.5 228
956.5 166.143
957.5 251.857
958.5 244.714
959.5 93.5714
960.5 222.857
961.5 208.429
962.5 250.286
963.5 280.429
964.5 193.857
965.5 249.857
966.5 219.714
967.5 166.571
968.5 113
969.5 201.286
970.5 206
971.5 193.143
972.5 217
973.5 190.714
974.5 189.143
975.5 249.714
976.5 175.143
977.5 122.286
978.5 138.143
979.5 224.714
980.5 167.571
981.5 141
982.5 190.857
983.5 159.286
984.5 167.143
985.5 110.429
986.5 161.286
987.5 232.143
988.5 262.429
989.5 166.286
990.5 242
991.5 152
992.5 157.429
993.5 219.714
994.5 258.286
995.5 281.857
996.5 339.143
997.5 227
998.5 235.429
999.5 269
1000.5 340.571
1001.5 478
1002.5 487.857
1003.5 371.857
1004.5 192
1005.5 162.429
1006.5 141
1007.5 157.429
1008.5 241.286
1009.5 97
1010.5 111.714
1011.5 166.286
1012.5 73.2857
1013.5 100.143
1014.5 201.429
1015.5 109.571
1016.5 149.857
1017.5 106
1018.5 108.857
1019.5 151
1020.5 128.714
1021.5 158.714
1022.5 71.1428
1023.5 231.857
1024.5 382.429
1025.5 182.429
1026.5 168
1027.5 127
1028.5 134.429
1029.5 153.714
1030.5 144.143
1031.5 113
1032.5 90
1033.5 158
1034.5 146.571
1035.5 174.714
1036.5 148
1037.5 173.714
1038.5 119.286
1039.5 60.5714
1040.5 157.571
1041.5 58.4286
1042.5 124.286
1043.5 99.2857
1044.5 119.429
1045.5 139.857
1046.5 132.714
1047.5 108.286
1048.5 105.857
1049.5 117.429
1050.5 168.286
1051.5 148.857
1052.5 136.857
1053.5 144.571
1054.5 90.2857
1055.5 98
1056.5 151.857
1057.5 110
1058.5 112.571
1059.5 116.857
1060.5 145.571
1061.5 100
1062.5 106.857
1063.5 43.2857
1064.5 71.8571
1065.5 95.8571
1066.5 50.1428
1067.5 28.7143
1068.5 134.857
1069.5 73.1428
1070.5 167.714
1071.5 295.857
1072.5 1089.71
1073.5 2501.71
1074.5 3164.71
1075.5 1651
1076.5 413.286
1077.5 83.1428
1078.5 76.2857
1079.5 124.571
1080.5 87.4286
1081.5 104.429
1082.5 178.286
1083.5 143
1084.5 79
1085.5 118.857
1086.5 95.8571
1087.5 125.714
1088.5 104.286
1089.5 50.2857
1090.5 103.714
1091.5 115.571
1092.5 56
1093.5 36.2857
1094.5 71.8571
1095.5 102.571
1096.5 91.4286
1097.5 72.2857
1098.5 45.7143
1099.5 18.1428
1100.5 33.4286
1101.5 53.1428
1102.5 61.5714
1103.5 106.714
1104.5 46
1105.5 108.429
1106.5 3.42856
1107.5 106.143
1108.5 58.1428
1109.5 158
1110.5 96.1428
1111.5 130.429
1112.5 76
1113.5 85.7143
1114.5 73.4286
1115.5 79
1116.5 44.5714
1117.5 88.2857
1118.5 107.286
1119.5 127
1120.5 105.143
1121.5 119.714
1122.5 239
1123.5 1016.57
1124.5 3440.71
1125.5 8110.71
1126.5 9147.29
1127.5 4066.29
1128.5 981.571
1129.5 218.286
1130.5 108.143
1131.5 60
1132.5 90.5714
1133.5 52.1428
1134.5 44.1428
1135.5 75.5714
1136.5 81.5714
1137.5 23.8571
1138.5 58.7143
1139.5 102.286
1140.5 138.571
1141.5 86.8571
1142.5 87.8571
1143.5 47.4286
1144.5 29.7143
1145.5 77.7143
1146.5 82.8571
1147.5 104.286
1148.5 112.571
1149.5 28.7143
1150.5 57.2857
1151.5 128
1152.5 88.4286
1153.5 532.714
1154.5 1548.14
1155.5 4835
1156.5 10831.6
1157.5 10881.4
1158.5 4572.71
1159.5 990.286
1160.5 272.571
1161.5 191.429
1162.5 75.2857
1163.5 82.8571
1164.5 103.286
1165.5 209.286
1166.5 80
1167.5 106.714
1168.5 31.1428
1169.5 26.1428
1170.5 90.4286
1171.5 62.5714
1172.5 27
1173.5 79
1174.5 50
1175.5 -0.85715
1176.5 90.7143
1177.5 58.1429
1178.5 18.1428
1179.5 -36
1180.5 67.5714
1181.5 77.2857
1182.5 89
1183.5 105.714
1184.5 1.2857
1185.5 49
1186.5 67
1187.5 12.8571
1188.5 -15.2857
1189.5 0.285706
1190.5 75
1191.5 32
1192.5 77.1429
1193.5 78.4286
1194.5 7.42856
1195.5 31.2857
1196.5 44.2857
1197.5 44.8571
1198.5 90.1429
1199.5 80.7143
1200.5 19.5714
1201.5 21
1202.5 -6.71429
1203.5 36.5714
1204.5 41.5714
1205.5 42.2857
1206.5 40.7143
1207.5 61.5714
1208.5 90.5714
1209.5 92.4286
1210.5 74.7143
1211.5 46.7143
1212.5 3.28571
1213.5 67.4286
1214.5 61
1215.5 12.2857
1216.5 -18.5714
1217.5 29.8571
1218.5 44
1219.5 22.2857
1220.5 80.5714
1221.5 23.5714
1222.5 30.1428
1223.5 8.42856
1224.5 28.8571
1225.5 76.7143
1226.5 45
1227.5 57.4286
1228.5 29.7143
1229.5 41.5714
1230.5 43.1429
1231.5 24.4286
1232.5 30.4286
1233.5 2.42857
1234.5 10.7143
1235.5 55.2857
1236.5 56
1237.5 4.28571
1238.5 86.5714
1239.5 43.8571
1240.5 91.8571
1241.5 14
1242.5 30
1243.5 46.5714
1244.5 109.857
1245.5 224.571
1246.5 304.429
1247.5 240.286
1248.5 215.143
1249.5 109.857
1250.5 57.2857
1251.5 51.8571
1252.5 36.8571
1253.5 -14.2857
1254.5 21.4286
1255.5 38.4286
1256.5 54.2857
1257.5 91
1258.5 76.8571
1259.5 109.286
1260.5 153.143
1261.5 109.429
1262.5 84.1428
1263.5 97.1428
1264.5 82.7143
1265.5 66.2857
1266.5 11.1428
1267.5 -17.7143
1268.5 61.7143
1269.5 -13.2857
1270.5 -2.00001
1271.5 67.2857
1272.5 41
1273.5 42.7143
1274.5 63.2857
1275.5 56.7143
1276.5 81.5714
1277.5 58.7143
1278.5 25.8571
1279.5 29.1429
1280.5 69.2857
1281.5 12.2857
1282.5 50.2857
1283.5 41.2857
1284.5 -2.28572
1285.5 -35
1286.5 46.1429
1287.5 52.1429
1288.5 61.4286
1289.5 -23
1290.5 11
1291.5 7.71428
1292.5 46.5714
1293.5 19.8571
1294.5 47.7143
1295.5 -11.5714
1296.5 53.2857
1297.5 6.71428
1298.5 8.28571
1299.5 43.1429
1300.5 52.1429
1301.5 34.8571
1302.5 41.2857
1303.5 37.4286
1304.5 27.5714
1305.5 -16.7143
1306.5 29.2857
1307.5 7.85713
1308.5 32.7143
1309.5 68.2857
1310.5 -7.57144
1311.5 36.4286
1312.5 89.2857
1313.5 21
1314.5 -38.4286
1315.5 49.7143
1316.5 62.7143
1317.5 26.4286
1318.5 33.2857
1319.5 22.8571
1320.5 22.1429
1321.5 6.57142
1322.5 29.8571
1323.5 95.1429
1324.5 71.5714
1325.5 51
1326.5 67.4286
1327.5 53.4286
1328.5 66.2857
1329.5 25.7143
1330.5 60.2857
1331.5 63
1332.5 -20.7143
1333.5 -2.42858
1334.5 0.714279
1335.5 44.5714
1336.5 19.1429
1337.5 32.5714
1338.5 0.142851
1339.5 22.1429
1340.5 32
1341.5 26.5714
1342.5 82.1429
1343.5 54.1429
1344.5 35
1345.5 -6.85715
1346.5 64.5714
1347.5 6.42857
1348.5 31.2857
1349.5 29.8571
1350.5 47.8571
1351.5 73.5714
1352.5 -9.42858
1353.5 35
1354.5 29.1429
1355.5 12.8571
1356.5 50
1357.5 44.2857
1358.5 28.8571
1359.5 56.2857
1360.5 57.1429
1361.5 44.2857
1362.5 53
1363.5 2.42857
1364.5 30.7143
1365.5 30.5714
1366.5 66.5714
1367.5 43.1429
1368.5 34.8571
1369.5 56.4286
1370.5 30.2857
1371.5 61.1428
1372.5 4.14285
1373.5 25.2857
1374.5 92.2857
1375.5 37
1376.5 78.4286
1377.5 75.5714
1378.5 56.5714
1379.5 51.7143
1380.5 40
1381.5 57
1382.5 21.2857
1383.5 19.5714
1384.5 42.7143
1385.5 13.8571
1386.5 63.5714
1387.5 0.428562
1388.5 19.5714
1389.5 24.8571
1390.5 49.5714
1391.5 52
1392.5 62.1429
1393.5 43
1394.5 38.1429
1395.5 72.4286
1396.5 15.2857
1397.5 21.5714
1398.5 49.2857
1399.5 31.7143
1400.5 35
1401.5 2.85714
1402.5 11.1429
1403.5 7.57142
1404.5 -4.14286
1405.5 47.2857
1406.5 18.2857
1407.5 -13.1429
1408.5 1.71428
1409.5 -6.57143
1410.5 9.71428
1411.5 61.4286
1412.5 5.28571
1413.5 20.5714
1414.5 54.1429
1415.5 91.7143
1416.5 54.1429
1417.5 24.5714
1418.5 35
1419.5 54.8571
1420.5 93.4286
1421.5 59.2857
1422.5 14.2857
1423.5 -14.5714
1424.5 63.7143
1425.5 54.2857
1426.5 -37.1429
1427.5 35
1428.5 79
1429.5 28
1430.5 17.7143
1431.5 50.4286
1432.5 77.1429
1433.5 38.1429
1434.5 103
1435.5 41.8571
1436.5 15.5714
1437.5 -2.57143
1438.5 38.2857
1439.5 24
1440.5 48.1429
1441.5 59
1442.5 42.2857
1443.5 36
1444.5 28.1429
1445.5 13.8571
1446.5 23.4286
1447.5 32.4286
1448.5 14.8571
1449.5 21.8571
1450.5 33
1451.5 -5.71429
