# EGG_ProjY_E4625.0(4.0)_B4610.5(2.5)_B4630.0(1.0)
# X axis : Energy (keV) [Y axis]
# Y axis : Counts/1 keV
# N Bins : 12000
# X Min : 0
# X Max : 12000
# X value at the center of the bins
0.5 0
1.5 0
2.5 0
3.5 0
4.5 0
5.5 17.1428
6.5 24
7.5 10
8.5 14
9.5 10.4286
10.5 18.8571
11.5 27.7143
12.5 6.71428
13.5 9.42856
14.5 20
15.5 32.4286
16.5 68.1428
17.5 28.5714
18.5 95.4286
19.5 59.1428
20.5 95.5714
21.5 114
22.5 82.8571
23.5 158
24.5 222.429
25.5 197.286
26.5 121.143
27.5 234.857
28.5 212.571
29.5 243
30.5 266
31.5 237.143
32.5 358.714
33.5 296.429
34.5 359.857
35.5 233.571
36.5 325.429
37.5 397.571
38.5 303.143
39.5 312.143
40.5 430.571
41.5 395.143
42.5 324
43.5 368.143
44.5 371.714
45.5 427.286
46.5 435.286
47.5 556.286
48.5 456.571
49.5 473
50.5 416.429
51.5 482.714
52.5 520.286
53.5 431.571
54.5 445.714
55.5 420.857
56.5 519.857
57.5 601.857
58.5 582.857
59.5 728.571
60.5 519.286
61.5 472.571
62.5 463
63.5 427.857
64.5 555.286
65.5 522.714
66.5 588.286
67.5 599.714
68.5 493.143
69.5 499.714
70.5 543
71.5 359
72.5 534.857
73.5 541.571
74.5 783.571
75.5 849.571
76.5 1074.86
77.5 1020.43
78.5 723.286
79.5 491.571
80.5 568.286
81.5 413.429
82.5 519.857
83.5 450
84.5 484.143
85.5 531.714
86.5 664.857
87.5 673.286
88.5 583.428
89.5 490.143
90.5 569
91.5 412.714
92.5 491.143
93.5 466.429
94.5 492
95.5 529.143
96.5 452.286
97.5 440.571
98.5 481.429
99.5 374.143
100.5 400.714
101.5 462.429
102.5 554
103.5 495.571
104.5 488.571
105.5 576.428
106.5 624.571
107.5 458.714
108.5 488.714
109.5 505.857
110.5 596.428
111.5 406.428
112.5 514.857
113.5 471.714
114.5 442.143
115.5 521.857
116.5 450.857
117.5 518.428
118.5 530.571
119.5 634
120.5 478.428
121.5 655.286
122.5 674.857
123.5 697.428
124.5 629.857
125.5 753.857
126.5 616.286
127.5 728.857
128.5 648.286
129.5 630.428
130.5 713.714
131.5 569.286
132.5 569
133.5 501.286
134.5 604.286
135.5 476.428
136.5 429.428
137.5 633.857
138.5 609.428
139.5 632.428
140.5 513.571
141.5 638
142.5 585.143
143.5 682.286
144.5 691
145.5 608.571
146.5 587.286
147.5 622.286
148.5 656.143
149.5 754.286
150.5 529.286
151.5 623.143
152.5 791.857
153.5 570
154.5 622.286
155.5 564.286
156.5 549.143
157.5 492
158.5 527.286
159.5 643
160.5 607.714
161.5 682.571
162.5 693.286
163.5 483.286
164.5 719.143
165.5 641.428
166.5 633.143
167.5 616.857
168.5 761.857
169.5 677
170.5 695.571
171.5 656.714
172.5 789.571
173.5 638.714
174.5 664.714
175.5 631.428
176.5 696.571
177.5 568.286
178.5 712.428
179.5 792.571
180.5 698
181.5 682.286
182.5 567.714
183.5 615.428
184.5 659.428
185.5 776
186.5 758.857
187.5 628.714
188.5 749.857
189.5 675
190.5 691.286
191.5 775.714
192.5 739
193.5 721.571
194.5 501.714
195.5 697.857
196.5 568.428
197.5 584.714
198.5 669.428
199.5 623.571
200.5 607.143
201.5 709.714
202.5 533.714
203.5 607.714
204.5 566.428
205.5 596.857
206.5 702.286
207.5 830
208.5 636.143
209.5 854.571
210.5 705.286
211.5 972.857
212.5 905.714
213.5 1001.86
214.5 1151.43
215.5 1188.57
216.5 1186.14
217.5 1310.57
218.5 1139.29
219.5 1126
220.5 1028.86
221.5 929.286
222.5 904
223.5 822.857
224.5 766.571
225.5 645.571
226.5 721.714
227.5 602.571
228.5 503.571
229.5 608.286
230.5 351.428
231.5 587.571
232.5 466.571
233.5 385.857
234.5 490.857
235.5 511.143
236.5 569.428
237.5 595
238.5 663.143
239.5 657.571
240.5 820.286
241.5 740.286
242.5 714.428
243.5 859.571
244.5 660.286
245.5 698
246.5 723.428
247.5 697
248.5 806.428
249.5 799.428
250.5 761
251.5 748
252.5 731.428
253.5 664.143
254.5 675.286
255.5 846
256.5 819.286
257.5 906.143
258.5 1027.29
259.5 934.428
260.5 1036.71
261.5 1054
262.5 919.571
263.5 810.428
264.5 800.571
265.5 675.571
266.5 715
267.5 723
268.5 523.857
269.5 505.286
270.5 457.714
271.5 303.857
272.5 246.571
273.5 246.857
274.5 373.143
275.5 421.428
276.5 413.571
277.5 357.714
278.5 649.428
279.5 594.286
280.5 657.143
281.5 635.571
282.5 596
283.5 732.857
284.5 616
285.5 477.143
286.5 561.571
287.5 447.571
288.5 657.857
289.5 493.571
290.5 580.428
291.5 634.571
292.5 624.857
293.5 604.857
294.5 695.143
295.5 782.571
296.5 732.571
297.5 583
298.5 574.429
299.5 659.143
300.5 666.286
301.5 527.429
302.5 516.429
303.5 511.857
304.5 511
305.5 486
306.5 393.714
307.5 427.857
308.5 400.857
309.5 518.571
310.5 526.429
311.5 536.286
312.5 596.143
313.5 578.429
314.5 504.143
315.5 598.429
316.5 711.286
317.5 761.429
318.5 756.857
319.5 701.143
320.5 741.571
321.5 716.571
322.5 688.714
323.5 578.571
324.5 623.857
325.5 672.429
326.5 557.286
327.5 569.286
328.5 439.143
329.5 444.429
330.5 464.857
331.5 470.857
332.5 338.571
333.5 412.286
334.5 246.428
335.5 520.714
336.5 398.714
337.5 405.857
338.5 440
339.5 498.714
340.5 577.571
341.5 483.429
342.5 414.143
343.5 515.571
344.5 455.714
345.5 547.571
346.5 487.143
347.5 469.714
348.5 542.714
349.5 398.429
350.5 502.571
351.5 511.143
352.5 567.143
353.5 545.143
354.5 523.714
355.5 681.143
356.5 637.286
357.5 587.714
358.5 556
359.5 599.571
360.5 641.857
361.5 570.429
362.5 491.143
363.5 430.714
364.5 444.143
365.5 522.143
366.5 431.714
367.5 501.429
368.5 481
369.5 348.143
370.5 280.857
371.5 295.714
372.5 310.429
373.5 338.143
374.5 409.429
375.5 460.286
376.5 548
377.5 415.429
378.5 527.429
379.5 640
380.5 568.571
381.5 565
382.5 514.286
383.5 545.571
384.5 531.571
385.5 423.429
386.5 408.714
387.5 426.714
388.5 413.286
389.5 361.143
390.5 348.571
391.5 296.571
392.5 279
393.5 270.429
394.5 360.571
395.5 344.714
396.5 405.143
397.5 342.571
398.5 487.286
399.5 480
400.5 404.429
401.5 393.143
402.5 480.429
403.5 1061.57
404.5 1050.14
405.5 586.571
406.5 471.143
407.5 458.857
408.5 529.429
409.5 429.286
410.5 427.286
411.5 366.429
412.5 474.143
413.5 368.143
414.5 439.571
415.5 306.571
416.5 496.714
417.5 387.571
418.5 360.714
419.5 438.571
420.5 318.143
421.5 306.857
422.5 279.143
423.5 376.286
424.5 314
425.5 377.143
426.5 368.714
427.5 366
428.5 322.286
429.5 348.571
430.5 305.429
431.5 366.571
432.5 294
433.5 350.714
434.5 388.429
435.5 371.143
436.5 434
437.5 315.714
438.5 437
439.5 368
440.5 456.571
441.5 382.714
442.5 419.714
443.5 432
444.5 412.571
445.5 356
446.5 422.429
447.5 416.571
448.5 421
449.5 461.714
450.5 337.571
451.5 451
452.5 420.429
453.5 363.857
454.5 398.429
455.5 379.571
456.5 423.571
457.5 324
458.5 306.857
459.5 322.857
460.5 347.714
461.5 386.143
462.5 395.857
463.5 398.571
464.5 395.714
465.5 376.571
466.5 359.143
467.5 310.714
468.5 381.857
469.5 408.286
470.5 356.143
471.5 421.714
472.5 422.714
473.5 465.714
474.5 411
475.5 435.857
476.5 376
477.5 391.286
478.5 375.143
479.5 405.429
480.5 397.714
481.5 334
482.5 448.286
483.5 457.857
484.5 350.571
485.5 430
486.5 315.857
487.5 335
488.5 263
489.5 334.857
490.5 297.429
491.5 379
492.5 322
493.5 369.857
494.5 386.714
495.5 403
496.5 335.714
497.5 453.143
498.5 390.571
499.5 415.286
500.5 346.571
501.5 346.286
502.5 259.429
503.5 331.714
504.5 371.714
505.5 593.714
506.5 763
507.5 1294.29
508.5 1773.71
509.5 2845.14
510.5 3791.43
511.5 3472.29
512.5 2116.71
513.5 954.286
514.5 583.286
515.5 450.857
516.5 278.571
517.5 306.714
518.5 311.857
519.5 262
520.5 267.286
521.5 238.429
522.5 247
523.5 259.571
524.5 267
525.5 253.286
526.5 261.143
527.5 301.143
528.5 363.571
529.5 292
530.5 254.429
531.5 330.857
532.5 305.714
533.5 404.571
534.5 325.571
535.5 298.714
536.5 303.286
537.5 374
538.5 334.429
539.5 339.286
540.5 321.143
541.5 319.714
542.5 353.857
543.5 302.714
544.5 362.286
545.5 266
546.5 274.857
547.5 316.143
548.5 312.286
549.5 302
550.5 251
551.5 381
552.5 257.286
553.5 202.286
554.5 303
555.5 189.571
556.5 277.429
557.5 231.857
558.5 325.143
559.5 317.429
560.5 305.429
561.5 348.429
562.5 265.286
563.5 271.143
564.5 304.429
565.5 398.571
566.5 264.714
567.5 324.714
568.5 334.857
569.5 338.286
570.5 325.429
571.5 322.571
572.5 288.714
573.5 258.286
574.5 324.571
575.5 264.857
576.5 264.857
577.5 249.571
578.5 261
579.5 296.286
580.5 261.143
581.5 299.429
582.5 383.571
583.5 255.571
584.5 240
585.5 257.857
586.5 256.857
587.5 287
588.5 212.571
589.5 301
590.5 304.714
591.5 230.714
592.5 282.571
593.5 198.143
594.5 272
595.5 251.714
596.5 328.857
597.5 317
598.5 341.143
599.5 378
600.5 306.714
601.5 318.714
602.5 338.286
603.5 259.857
604.5 288.571
605.5 268.714
606.5 320.286
607.5 305.429
608.5 272.857
609.5 311.857
610.5 256.714
611.5 284.143
612.5 311.857
613.5 289.143
614.5 280.286
615.5 244.571
616.5 297.143
617.5 236.857
618.5 296.286
619.5 267.143
620.5 304.286
621.5 310.286
622.5 287
623.5 303.429
624.5 311.286
625.5 254.571
626.5 217.143
627.5 286.714
628.5 420.429
629.5 382.429
630.5 317.143
631.5 190.143
632.5 262.857
633.5 246.571
634.5 292
635.5 365.429
636.5 324.714
637.5 479.143
638.5 478.857
639.5 352.857
640.5 363.286
641.5 340.143
642.5 235
643.5 215.429
644.5 273.143
645.5 325.857
646.5 374.857
647.5 306
648.5 318.429
649.5 315.143
650.5 527.571
651.5 424.143
652.5 395.571
653.5 270
654.5 342.857
655.5 254.429
656.5 303.857
657.5 286.286
658.5 302
659.5 323
660.5 264.143
661.5 300.571
662.5 338
663.5 425.429
664.5 655
665.5 704.286
666.5 451.286
667.5 363.714
668.5 271.571
669.5 316.143
670.5 300.857
671.5 267.857
672.5 318
673.5 258.714
674.5 251.429
675.5 339.714
676.5 300.286
677.5 241.857
678.5 281.286
679.5 312
680.5 244.571
681.5 311
682.5 320
683.5 271.143
684.5 277.143
685.5 264.714
686.5 256.857
687.5 310.857
688.5 260
689.5 251.286
690.5 245.571
691.5 235.714
692.5 306.571
693.5 282.571
694.5 246
695.5 257.286
696.5 256.714
697.5 290.571
698.5 250.429
699.5 280.857
700.5 287.429
701.5 277.714
702.5 268.857
703.5 276.143
704.5 285.714
705.5 244.286
706.5 294.143
707.5 229.286
708.5 216.571
709.5 282.429
710.5 322.429
711.5 291.714
712.5 254.143
713.5 266.429
714.5 213.143
715.5 298.429
716.5 379.857
717.5 293.286
718.5 297
719.5 305
720.5 279
721.5 199.286
722.5 289
723.5 275.286
724.5 336.571
725.5 276.714
726.5 354.857
727.5 360
728.5 424.714
729.5 554.429
730.5 395.429
731.5 384.857
732.5 304.857
733.5 361.857
734.5 288.286
735.5 239.143
736.5 261.571
737.5 270
738.5 300.857
739.5 206.286
740.5 247.143
741.5 221.571
742.5 256
743.5 202.143
744.5 241.429
745.5 181.286
746.5 287.286
747.5 280.429
748.5 333.286
749.5 258.286
750.5 339.714
751.5 253.143
752.5 312
753.5 276
754.5 221
755.5 314
756.5 238.857
757.5 254
758.5 347.857
759.5 507.714
760.5 902
761.5 1125.14
762.5 755.143
763.5 365.571
764.5 330.429
765.5 289.857
766.5 307.857
767.5 330.429
768.5 327
769.5 448.714
770.5 334.714
771.5 413.286
772.5 368.429
773.5 419.714
774.5 377.857
775.5 342.429
776.5 279.571
777.5 284.857
778.5 263.429
779.5 274.143
780.5 245
781.5 277
782.5 182.857
783.5 165.286
784.5 227.429
785.5 216.143
786.5 172.143
787.5 215.714
788.5 253.571
789.5 284.714
790.5 222.571
791.5 282.143
792.5 258.429
793.5 270.286
794.5 310.429
795.5 270.857
796.5 263.429
797.5 316.429
798.5 269
799.5 399.571
800.5 267.143
801.5 293.857
802.5 327.429
803.5 383
804.5 288
805.5 249
806.5 287.286
807.5 373.286
808.5 324.429
809.5 227.857
810.5 344.143
811.5 226.286
812.5 333.143
813.5 247.429
814.5 218.571
815.5 266.857
816.5 285.571
817.5 338
818.5 309.571
819.5 351.857
820.5 285.143
821.5 272.571
822.5 255
823.5 315.857
824.5 295.571
825.5 269.571
826.5 339
827.5 336.857
828.5 320.571
829.5 351.714
830.5 231.571
831.5 362.857
832.5 291
833.5 300.714
834.5 379.143
835.5 287.286
836.5 255.429
837.5 310.857
838.5 357.571
839.5 290.429
840.5 351.286
841.5 325.571
842.5 349.286
843.5 316
844.5 338.714
845.5 319.286
846.5 372.571
847.5 349
848.5 348.714
849.5 363.714
850.5 325.286
851.5 347.714
852.5 387.286
853.5 310.571
854.5 326
855.5 317.286
856.5 392.429
857.5 376.143
858.5 364.143
859.5 306.286
860.5 317.857
861.5 391.571
862.5 289.429
863.5 356.429
864.5 348
865.5 311.571
866.5 308.571
867.5 381.286
868.5 437.714
869.5 531.429
870.5 411.857
871.5 331.571
872.5 321.714
873.5 380.857
874.5 456.571
875.5 327
876.5 491.857
877.5 445.429
878.5 408.286
879.5 423.143
880.5 350.857
881.5 417.429
882.5 390.571
883.5 408.571
884.5 361.429
885.5 409.286
886.5 395.714
887.5 419.429
888.5 409.857
889.5 326.429
890.5 410.714
891.5 458.714
892.5 413.857
893.5 391
894.5 395.143
895.5 387.286
896.5 345.714
897.5 415.571
898.5 403.857
899.5 394
900.5 452.286
901.5 408.286
902.5 355.714
903.5 418.429
904.5 429.571
905.5 460
906.5 365.714
907.5 420.429
908.5 412.571
909.5 341.714
910.5 425
911.5 438.571
912.5 523.143
913.5 493.571
914.5 504
915.5 446.429
916.5 412.286
917.5 420.143
918.5 420.429
919.5 383.714
920.5 361.429
921.5 423.286
922.5 447.286
923.5 387.143
924.5 381.571
925.5 383.714
926.5 346.429
927.5 385.571
928.5 443.857
929.5 457.286
930.5 407
931.5 398
932.5 440.429
933.5 507.857
934.5 414.143
935.5 449
936.5 468.429
937.5 486
938.5 434.571
939.5 420.571
940.5 499.857
941.5 396.429
942.5 359.857
943.5 454.857
944.5 438.571
945.5 383.714
946.5 405.286
947.5 399
948.5 330.857
949.5 394.286
950.5 280.429
951.5 330.857
952.5 401.143
953.5 335.286
954.5 311.714
955.5 463.714
956.5 448.429
957.5 361.143
958.5 350.857
959.5 302.571
960.5 326.714
961.5 293.714
962.5 326.286
963.5 375.143
964.5 364.286
965.5 473.143
966.5 509.571
967.5 526.857
968.5 259.429
969.5 292.714
970.5 327.143
971.5 256.714
972.5 261.857
973.5 284.429
974.5 261.571
975.5 237.714
976.5 247.714
977.5 291.857
978.5 218.571
979.5 230.714
980.5 254
981.5 217.857
982.5 225.714
983.5 227.857
984.5 269.286
985.5 221.429
986.5 224.286
987.5 240.857
988.5 220
989.5 270.714
990.5 274.429
991.5 223.143
992.5 264
993.5 244.143
994.5 231.286
995.5 263
996.5 249.286
997.5 209.143
998.5 283.714
999.5 322.286
1000.5 426.714
1001.5 570.428
1002.5 565.714
1003.5 397.143
1004.5 304.286
1005.5 303.143
1006.5 230
1007.5 240.429
1008.5 228.143
1009.5 218.714
1010.5 241.714
1011.5 207.429
1012.5 213.143
1013.5 193.286
1014.5 277
1015.5 290.857
1016.5 308.714
1017.5 243.571
1018.5 183.429
1019.5 220.571
1020.5 273.857
1021.5 218.143
1022.5 285.143
1023.5 248.857
1024.5 453.857
1025.5 388.571
1026.5 314.714
1027.5 204.143
1028.5 208.286
1029.5 177.143
1030.5 190.571
1031.5 199.714
1032.5 215.429
1033.5 167.571
1034.5 193.571
1035.5 132.714
1036.5 193.286
1037.5 177.286
1038.5 204.429
1039.5 191.286
1040.5 200.714
1041.5 163.429
1042.5 174.714
1043.5 162.429
1044.5 186
1045.5 175.429
1046.5 202
1047.5 170.429
1048.5 175.571
1049.5 206.714
1050.5 244.429
1051.5 222.857
1052.5 190
1053.5 182
1054.5 199.429
1055.5 196.857
1056.5 122.714
1057.5 165.857
1058.5 201.286
1059.5 157.571
1060.5 164.286
1061.5 92.1428
1062.5 215.286
1063.5 312.429
1064.5 317.143
1065.5 167.714
1066.5 158.714
1067.5 186.857
1068.5 140.571
1069.5 193.857
1070.5 197.857
1071.5 384.857
1072.5 889.429
1073.5 2237.86
1074.5 2582.71
1075.5 1362.29
1076.5 425.429
1077.5 131.429
1078.5 143.143
1079.5 175.571
1080.5 109.714
1081.5 119.857
1082.5 162.857
1083.5 162.714
1084.5 144.857
1085.5 107.429
1086.5 145.286
1087.5 124.286
1088.5 162.857
1089.5 146.286
1090.5 148
1091.5 150.714
1092.5 130.571
1093.5 171.857
1094.5 143.143
1095.5 162.143
1096.5 151.571
1097.5 198
1098.5 94.4286
1099.5 134
1100.5 126.143
1101.5 148.143
1102.5 95.7143
1103.5 154
1104.5 107.571
1105.5 88.4286
1106.5 92
1107.5 84.4286
1108.5 130.143
1109.5 129.286
1110.5 112
1111.5 159.571
1112.5 134
1113.5 85.1428
1114.5 153
1115.5 169
1116.5 129.714
1117.5 133.143
1118.5 139.429
1119.5 155.286
1120.5 135
1121.5 209.143
1122.5 315.571
1123.5 800.286
1124.5 3145.29
1125.5 7534.29
1126.5 8278
1127.5 3865.86
1128.5 949.286
1129.5 255.143
1130.5 143
1131.5 144.286
1132.5 138.143
1133.5 115.571
1134.5 117.143
1135.5 84
1136.5 114
1137.5 86.5714
1138.5 71.1428
1139.5 122.714
1140.5 106.429
1141.5 91.4286
1142.5 107.286
1143.5 135.429
1144.5 75
1145.5 75
1146.5 104
1147.5 119.714
1148.5 124.857
1149.5 119.857
1150.5 119.429
1151.5 115
1152.5 237.857
1153.5 761.286
1154.5 3024.71
1155.5 10315.4
1156.5 22115.3
1157.5 22691.7
1158.5 9548.14
1159.5 1976.86
1160.5 398.571
1161.5 78.1428
1162.5 133.286
1163.5 60.2857
1164.5 59.7143
1165.5 42.1428
1166.5 76.4286
1167.5 93.8571
1168.5 56.4286
1169.5 71.4286
1170.5 54
1171.5 39.2857
1172.5 37
1173.5 63.5714
1174.5 38.5714
1175.5 51.1429
1176.5 105.429
1177.5 35
1178.5 12
1179.5 86.8571
1180.5 65.2857
1181.5 110.571
1182.5 114.714
1183.5 134.571
1184.5 51.5714
1185.5 77
1186.5 49.5714
1187.5 28
1188.5 36.4286
1189.5 38.2857
1190.5 56.7143
1191.5 58.2857
1192.5 72.4286
1193.5 57.7143
1194.5 41.8571
1195.5 70.4286
1196.5 98
1197.5 14.2857
1198.5 52.5714
1199.5 55.5714
1200.5 50.5714
1201.5 63
1202.5 59.8571
1203.5 101.857
1204.5 96.4286
1205.5 57.8571
1206.5 85.8571
1207.5 54.2857
1208.5 61.1429
1209.5 101.714
1210.5 80.5714
1211.5 24.4286
1212.5 93.8571
1213.5 66.8571
1214.5 49.4286
1215.5 26.7143
1216.5 54.2857
1217.5 57.8571
1218.5 52.4286
1219.5 71.2857
1220.5 56.5714
1221.5 72.2857
1222.5 67.5714
1223.5 85.5714
1224.5 48
1225.5 6.28571
1226.5 25
1227.5 59
1228.5 45
1229.5 45.1428
1230.5 43.8571
1231.5 50.8571
1232.5 74.4286
1233.5 45.1429
1234.5 34.1429
1235.5 9.71428
1236.5 53.8571
1237.5 57.2857
1238.5 9.14285
1239.5 67.7143
1240.5 54.1429
1241.5 90.1429
1242.5 21.5714
1243.5 13.4286
1244.5 29.8571
1245.5 46.2857
1246.5 40.7143
1247.5 59.4286
1248.5 47.2857
1249.5 67.5714
1250.5 23.8571
1251.5 42
1252.5 48.8571
1253.5 59.8571
1254.5 63.7143
1255.5 8.85714
1256.5 25.1429
1257.5 68.5714
1258.5 26
1259.5 -1.57144
1260.5 49.8571
1261.5 48
1262.5 33.7143
1263.5 22.1428
1264.5 34.7143
1265.5 49
1266.5 28.5714
1267.5 74
1268.5 24.7143
1269.5 42.4286
1270.5 62.2857
1271.5 30.1428
1272.5 88.7143
1273.5 176.143
1274.5 281.143
1275.5 249
1276.5 181.857
1277.5 72.4286
1278.5 63.1428
1279.5 31.4286
1280.5 16.8571
1281.5 66.8571
1282.5 40.4286
1283.5 51.4286
1284.5 48.1429
1285.5 15.7143
1286.5 12
1287.5 -3.42858
1288.5 15.2857
1289.5 -13.8572
1290.5 27
1291.5 2.14285
1292.5 61.8571
1293.5 50.4286
1294.5 22.7143
1295.5 34.8571
1296.5 46
1297.5 41.7143
1298.5 32.2857
1299.5 53
1300.5 20.7143
1301.5 43.5714
1302.5 12.1429
1303.5 58.1429
1304.5 44.7143
1305.5 46.2857
1306.5 27.8571
1307.5 206.857
1308.5 256.857
1309.5 351
1310.5 155.143
1311.5 66.2857
1312.5 27.8571
1313.5 63.5714
1314.5 57.7143
1315.5 78.4286
1316.5 44.4286
1317.5 35.4286
1318.5 37.4286
1319.5 59.1429
1320.5 30.7143
1321.5 51
1322.5 35.5714
1323.5 55.8571
1324.5 58.8571
1325.5 37.2857
1326.5 27.1429
1327.5 65.7143
1328.5 51.1429
1329.5 42.2857
1330.5 37
1331.5 45
1332.5 45.8571
1333.5 55.1429
1334.5 53.7143
1335.5 20.2857
1336.5 36.7143
1337.5 18.1429
1338.5 46.8571
1339.5 82.4286
1340.5 33.5714
1341.5 55
1342.5 14.4286
1343.5 65.2857
1344.5 14.8571
1345.5 -4.71429
1346.5 30.7143
1347.5 48.8571
1348.5 15.4286
1349.5 26.4286
1350.5 41.1429
1351.5 52.2857
1352.5 46.7143
1353.5 56.1429
1354.5 52.8571
1355.5 28
1356.5 54.4286
1357.5 14.2857
1358.5 58.8571
1359.5 60.1429
1360.5 45.7143
1361.5 39.4286
1362.5 23.4286
1363.5 37.5714
1364.5 35.2857
1365.5 62.5714
1366.5 59.7143
1367.5 72.8571
1368.5 29
1369.5 74.5714
1370.5 86.4286
1371.5 25.7143
1372.5 55.4286
1373.5 76.1429
1374.5 112.143
1375.5 98.4286
1376.5 76.8571
1377.5 104.571
1378.5 146.143
1379.5 91.7143
1380.5 61.5714
1381.5 65.2857
1382.5 31.8571
1383.5 10.1429
1384.5 18.1429
1385.5 29.8571
1386.5 21.8571
1387.5 54.7143
1388.5 45.5714
1389.5 42.2857
1390.5 56.7143
1391.5 42.8571
1392.5 44.7143
1393.5 45
1394.5 52.8571
1395.5 30.5714
1396.5 41.5714
1397.5 58.8571
1398.5 7.99999
1399.5 62.7143
1400.5 43.5714
1401.5 29.7143
1402.5 68.7143
1403.5 19
1404.5 73.1429
1405.5 29.4286
1406.5 80.1429
1407.5 110.714
1408.5 192.429
1409.5 142.571
1410.5 58.8571
1411.5 76.8571
1412.5 101.571
1413.5 101.286
1414.5 108
1415.5 47.8571
1416.5 64.7143
1417.5 22.5714
1418.5 31.2857
1419.5 -10
1420.5 23.4286
1421.5 60.1429
1422.5 62
1423.5 51
1424.5 20.1429
1425.5 70.2857
1426.5 77.4286
1427.5 114.286
1428.5 255
1429.5 248.571
1430.5 161.429
1431.5 106.143
1432.5 41.2857
1433.5 58.1429
1434.5 18.7143
1435.5 11.1429
1436.5 57.4286
1437.5 47
1438.5 57.1429
1439.5 28.4286
1440.5 85.5714
1441.5 36.4286
1442.5 24.7143
1443.5 46.8571
1444.5 37.2857
1445.5 43.1429
1446.5 51.7143
1447.5 24.1429
1448.5 77.7143
1449.5 23.5714
1450.5 51
1451.5 30.1429
1452.5 37
1453.5 27.7143
1454.5 54.2857
