# EGG_ProjY_E1182.0(3.0)_B1177.5(1.5)_B1195.0(1.0)_B1186.0(1.0)
# X axis : Energy (keV) [Y axis]
# Y axis : Counts/1 keV
# N Bins : 12000
# X Min : 0
# X Max : 12000
# X value at the center of the bins
0.5 0
1.5 0
2.5 0
3.5 0
4.5 0
5.5 28
6.5 40.8571
7.5 21.7143
8.5 11.8571
9.5 18
10.5 18.5714
11.5 2.85714
12.5 25.8571
13.5 69
14.5 39
15.5 41.8571
16.5 91.8571
17.5 103
18.5 149.143
19.5 219.286
20.5 294.571
21.5 452
22.5 492.286
23.5 544.571
24.5 572
25.5 724.286
26.5 739.429
27.5 861.429
28.5 797.143
29.5 1154
30.5 1095.71
31.5 1274.71
32.5 1224.71
33.5 1259.86
34.5 1366
35.5 1359.29
36.5 1513.14
37.5 1631.71
38.5 1804.71
39.5 1966.43
40.5 1762.43
41.5 2310.57
42.5 2989.14
43.5 2331
44.5 1990
45.5 1743.86
46.5 1747.43
47.5 1758.29
48.5 2022.14
49.5 1935.71
50.5 1814.86
51.5 1812.43
52.5 1838.86
53.5 1681.14
54.5 1652
55.5 1785.71
56.5 1733.71
57.5 2199
58.5 2746.86
59.5 2856
60.5 2323.14
61.5 1922.29
62.5 1887
63.5 1944.86
64.5 1998
65.5 2161.43
66.5 2273.14
67.5 2521.71
68.5 2164.86
69.5 2028.14
70.5 1824
71.5 2152.86
72.5 2107.29
73.5 2465.14
74.5 3468.57
75.5 3441.57
76.5 4072
77.5 4456.71
78.5 3553
79.5 2662.43
80.5 2496.86
81.5 2113.57
82.5 2125.71
83.5 2021
84.5 2194
85.5 2155.57
86.5 2634.14
87.5 3391.43
88.5 2590.43
89.5 2650
90.5 2383.57
91.5 2205.86
92.5 1923.29
93.5 1954.86
94.5 1966
95.5 1912.14
96.5 2111
97.5 1981.43
98.5 1974.71
99.5 1962.43
100.5 2164
101.5 2095.86
102.5 2026.57
103.5 2190
104.5 1987.86
105.5 1938.71
106.5 2227.29
107.5 1928
108.5 2298.57
109.5 2253
110.5 2382.86
111.5 2586.29
112.5 2458.71
113.5 2446.57
114.5 2274.29
115.5 2345
116.5 2248.57
117.5 2148.29
118.5 2277.14
119.5 2377.43
120.5 2598.57
121.5 2617.14
122.5 2703.29
123.5 2537
124.5 2854.43
125.5 2698.29
126.5 2771.57
127.5 2647.71
128.5 2794.14
129.5 2624.14
130.5 2396
131.5 2357.14
132.5 2616.57
133.5 2619.14
134.5 2808.14
135.5 2650.71
136.5 2592.86
137.5 2764.71
138.5 2555
139.5 2814.29
140.5 2757.29
141.5 2816.71
142.5 2681.71
143.5 2602.29
144.5 2653.71
145.5 2943.14
146.5 2643.14
147.5 2896.29
148.5 2788.14
149.5 2625.57
150.5 2494
151.5 2698
152.5 2634.14
153.5 2869.86
154.5 2320.43
155.5 2654.43
156.5 2632.71
157.5 2766.29
158.5 2672.71
159.5 2854.29
160.5 2728
161.5 2817.86
162.5 2764.29
163.5 2805.71
164.5 2803.57
165.5 2627.57
166.5 2724.86
167.5 2591.29
168.5 2702.57
169.5 3068.71
170.5 2947.14
171.5 2606
172.5 2760.71
173.5 2702.43
174.5 2755
175.5 2455.14
176.5 2950.86
177.5 3232.29
178.5 2961.29
179.5 2558.43
180.5 3106.14
181.5 2683
182.5 2743
183.5 2694.43
184.5 3005
185.5 2840.43
186.5 2912.86
187.5 3055.29
188.5 3142.86
189.5 3088.14
190.5 3151.57
191.5 3379.57
192.5 3000.14
193.5 3038.29
194.5 3353.43
195.5 3309
196.5 3006
197.5 3478.14
198.5 4337
199.5 5474.86
200.5 5148.14
201.5 6172.43
202.5 6505.86
203.5 4358.29
204.5 3393.43
205.5 3572.29
206.5 3724.14
207.5 3454.57
208.5 3281
209.5 3390.71
210.5 3040.14
211.5 3275.57
212.5 3218
213.5 3475.57
214.5 3436.43
215.5 3350
216.5 3040
217.5 3433.57
218.5 3381.71
219.5 3036.86
220.5 3137.57
221.5 3012.57
222.5 3190.43
223.5 3189
224.5 3195.57
225.5 2966.29
226.5 3211.43
227.5 3296.29
228.5 2830
229.5 2934.57
230.5 3022
231.5 2627.29
232.5 2840.14
233.5 2692
234.5 2581.86
235.5 3006.14
236.5 3134
237.5 3164.86
238.5 3027.29
239.5 2839.43
240.5 2710.57
241.5 2637.14
242.5 2730.29
243.5 2959.71
244.5 3642.29
245.5 4076.14
246.5 4004.43
247.5 3526.43
248.5 3333.57
249.5 2873.71
250.5 2294.29
251.5 2348.14
252.5 2316.86
253.5 2460.86
254.5 2705.57
255.5 2809.29
256.5 2643.86
257.5 2710.43
258.5 2622
259.5 2723.43
260.5 2936.29
261.5 2624.57
262.5 2514.14
263.5 2484.86
264.5 2452.14
265.5 2545.57
266.5 2514.14
267.5 2434
268.5 2746.43
269.5 2773.86
270.5 2450.29
271.5 2359.43
272.5 2518.71
273.5 2402.29
274.5 2722.29
275.5 2632.71
276.5 2400.29
277.5 2733
278.5 2656.14
279.5 2613.29
280.5 2735.29
281.5 2847.29
282.5 2474.57
283.5 2418
284.5 2438.57
285.5 2089.43
286.5 2458.71
287.5 2441.14
288.5 2545.57
289.5 2641.29
290.5 2457
291.5 2575.29
292.5 2417.43
293.5 2352.71
294.5 2281.43
295.5 2211.71
296.5 2575.71
297.5 2850.14
298.5 3037.29
299.5 2899
300.5 2728.71
301.5 2276.86
302.5 1478
303.5 1035.29
304.5 1119
305.5 1118.71
306.5 1799.14
307.5 2301.71
308.5 2525.43
309.5 2392.29
310.5 2126.57
311.5 1555.43
312.5 1683.71
313.5 1936.29
314.5 2992.86
315.5 4192
316.5 4728.43
317.5 5049.29
318.5 4454.86
319.5 3382.71
320.5 2127.57
321.5 945.143
322.5 749.857
323.5 1340.71
324.5 1770.14
325.5 2234.57
326.5 2233
327.5 2150.29
328.5 2304.29
329.5 2360.86
330.5 2294.14
331.5 2180.86
332.5 2024.86
333.5 2161.57
334.5 2290.43
335.5 2270.29
336.5 2157.86
337.5 2204.43
338.5 2279.71
339.5 2115.86
340.5 2328
341.5 2199.29
342.5 2044
343.5 2051
344.5 2049
345.5 1950.71
346.5 1982.86
347.5 2010.43
348.5 2036.14
349.5 1939.29
350.5 2164.57
351.5 1989.29
352.5 2161.29
353.5 2038
354.5 2077.71
355.5 2351.14
356.5 2388.29
357.5 2289.57
358.5 2329.29
359.5 2346.86
360.5 2005.86
361.5 2186.14
362.5 2027
363.5 1783.86
364.5 1994.71
365.5 1935.43
366.5 2007.71
367.5 1967.71
368.5 2048.71
369.5 2100
370.5 1888
371.5 1985.14
372.5 2057.14
373.5 2254.14
374.5 1955.86
375.5 1971.14
376.5 2044
377.5 1877.57
378.5 2053.43
379.5 2031.14
380.5 1778.86
381.5 1874.29
382.5 2087.14
383.5 1997
384.5 2103.57
385.5 2160.29
386.5 2071.71
387.5 2082.43
388.5 1839.43
389.5 1852.14
390.5 2162.43
391.5 1982
392.5 1953
393.5 2142.71
394.5 2074.29
395.5 1910.71
396.5 2058.71
397.5 2154.71
398.5 1831.14
399.5 1825.57
400.5 1938.86
401.5 1921.71
402.5 2176
403.5 2329.71
404.5 2627.86
405.5 2204
406.5 2401.57
407.5 2164.57
408.5 2013.29
409.5 1886.86
410.5 1728
411.5 1993.86
412.5 1775.86
413.5 2005.29
414.5 2051
415.5 1961.71
416.5 2066.29
417.5 1865
418.5 2102.43
419.5 2137.29
420.5 2110.14
421.5 2119.86
422.5 2264.43
423.5 2168.86
424.5 2019
425.5 1758.86
426.5 1909.14
427.5 2073.86
428.5 1928.71
429.5 1977.43
430.5 1995.71
431.5 2089.57
432.5 2159
433.5 1987.29
434.5 2048
435.5 1924
436.5 1520.86
437.5 1139.57
438.5 1033.86
439.5 1518.86
440.5 2066
441.5 2178.43
442.5 2095
443.5 1977.86
444.5 1729.86
445.5 1637
446.5 1336.57
447.5 1638.86
448.5 2747.86
449.5 3488.29
450.5 3921.29
451.5 3921.86
452.5 3586.43
453.5 2585
454.5 1542.71
455.5 938.857
456.5 1088.57
457.5 1422.14
458.5 1777.57
459.5 1900.14
460.5 1871
461.5 1748.14
462.5 1745.43
463.5 1910.57
464.5 2169.57
465.5 2262.43
466.5 2203.71
467.5 2109
468.5 1838.43
469.5 1733.14
470.5 1456
471.5 1599.71
472.5 1679
473.5 2103.57
474.5 2177
475.5 3138.43
476.5 3589.86
477.5 2567.71
478.5 2059.43
479.5 2377.14
480.5 1926.57
481.5 1845.71
482.5 1810.71
483.5 1833.29
484.5 1771.43
485.5 1697
486.5 1782.86
487.5 1730.86
488.5 1904.29
489.5 1664.29
490.5 1823
491.5 1754.43
492.5 1523.57
493.5 1693.71
494.5 1642
495.5 1865.43
496.5 1728.14
497.5 1730.86
498.5 1705.57
499.5 1709.14
500.5 1624.29
501.5 1852.29
502.5 1667.29
503.5 1718.29
504.5 2001
505.5 1670.86
506.5 1986.43
507.5 2198.71
508.5 3181.14
509.5 3784.14
510.5 5600.86
511.5 5609.43
512.5 4449
513.5 3026.57
514.5 2060.43
515.5 1704.86
516.5 1714.14
517.5 1663.86
518.5 1713.71
519.5 1621.29
520.5 1658.14
521.5 1684
522.5 1551
523.5 1574
524.5 1647.57
525.5 1763.57
526.5 1511.86
527.5 1732.71
528.5 1421
529.5 1389.43
530.5 1568
531.5 1500.57
532.5 1502
533.5 1523
534.5 1603.71
535.5 1631.71
536.5 1628
537.5 1555.14
538.5 1523.14
539.5 1485.57
540.5 1756.71
541.5 1780.14
542.5 1794.57
543.5 1967.57
544.5 1963.57
545.5 1819.57
546.5 1549.14
547.5 1384.14
548.5 1697.57
549.5 1363.14
550.5 1606.43
551.5 1691.71
552.5 1687.57
553.5 1639.86
554.5 1641
555.5 1575
556.5 1660.57
557.5 1806
558.5 1602
559.5 1690.43
560.5 1653
561.5 1503.14
562.5 1722.71
563.5 1701.14
564.5 1634.86
565.5 1793.43
566.5 1665.86
567.5 1588.29
568.5 1532.29
569.5 1615.57
570.5 1687
571.5 1608
572.5 1470.57
573.5 1597.14
574.5 1421.29
575.5 1427.57
576.5 1419.29
577.5 1482.43
578.5 1526.43
579.5 1499.71
580.5 1601.43
581.5 1534.43
582.5 1231.86
583.5 1219.43
584.5 1345.29
585.5 1433.71
586.5 1384.57
587.5 1404
588.5 1395.57
589.5 1544.43
590.5 1499.71
591.5 1646
592.5 1544.29
593.5 1491
594.5 1753.29
595.5 1868.86
596.5 1947.43
597.5 1781.71
598.5 1759.71
599.5 1677.14
600.5 1505.71
601.5 1480.57
602.5 1426.14
603.5 1546
604.5 2360.43
605.5 3240.14
606.5 2382.86
607.5 1847.43
608.5 1647.14
609.5 1413
610.5 1488
611.5 1443.86
612.5 1518
613.5 1539.57
614.5 1456.57
615.5 1494.71
616.5 1517.43
617.5 1577.29
618.5 1530.29
619.5 1579.43
620.5 1493
621.5 1445
622.5 1492.29
623.5 1662.57
624.5 1696
625.5 2176
626.5 5931.14
627.5 23676.9
628.5 44232.7
629.5 29841.9
630.5 9174.43
631.5 2946
632.5 1642.86
633.5 1368.57
634.5 1632.29
635.5 1573.14
636.5 1672.29
637.5 1591.86
638.5 1316
639.5 1467.29
640.5 1554.43
641.5 1422.57
642.5 1456.71
643.5 1309.29
644.5 1466.14
645.5 1487.14
646.5 1416.14
647.5 1399.43
648.5 1294.86
649.5 1529.57
650.5 1640
651.5 1531.86
652.5 1429.86
653.5 1479.43
654.5 1201.71
655.5 865.857
656.5 717.429
657.5 1224.57
658.5 1339.43
659.5 1413.43
660.5 1477.14
661.5 1512.86
662.5 1531
663.5 1555
664.5 1474
665.5 1520.43
666.5 1557.29
667.5 1528.71
668.5 1518.14
669.5 1461.57
670.5 1462
671.5 1412.29
672.5 1394.71
673.5 1259.57
674.5 1217.71
675.5 1205.43
676.5 1342.57
677.5 1921.57
678.5 2397.57
679.5 2033.71
680.5 1572.14
681.5 1395.86
682.5 1469.29
683.5 1352.57
684.5 1296.29
685.5 1149
686.5 1256
687.5 1265.57
688.5 1159.71
689.5 1314.43
690.5 1499.86
691.5 1179.86
692.5 1087.57
693.5 1120.43
694.5 1209
695.5 1112.86
696.5 1091.14
697.5 1013.43
698.5 1095.14
699.5 1076.57
700.5 1388.43
701.5 1503.29
702.5 1486.43
703.5 1724.43
704.5 1667.43
705.5 1535.14
706.5 1183.57
707.5 1227.43
708.5 1126.14
709.5 1112.86
710.5 986.286
711.5 1073.43
712.5 1220.29
713.5 1323
714.5 1137.43
715.5 1231.29
716.5 1270.86
717.5 1258.29
718.5 1253.86
719.5 1239.71
720.5 1108.14
721.5 1167
722.5 1276.57
723.5 1250
724.5 1302.43
725.5 1163.57
726.5 1273.14
727.5 1325
728.5 1329.86
729.5 1296.71
730.5 1330.57
731.5 1215.14
732.5 1355.71
733.5 1394.86
734.5 1194
735.5 1215.14
736.5 1284.86
737.5 1275.71
738.5 1360.86
739.5 1170.43
740.5 1319.29
741.5 1280
742.5 1257.14
743.5 998.571
744.5 1088.71
745.5 1228.43
746.5 1244.14
747.5 1529
748.5 1344.43
749.5 1198.43
750.5 1362.29
751.5 1359.29
752.5 1370.29
753.5 1320.43
754.5 1196.57
755.5 1150.71
756.5 1292.43
757.5 1513.43
758.5 2386.71
759.5 7205
760.5 18987
761.5 21036
762.5 9814.14
763.5 3151.57
764.5 1628.86
765.5 1200.29
766.5 1190.29
767.5 917.429
768.5 832.429
769.5 1062.43
770.5 1294.14
771.5 1211.71
772.5 1240.14
773.5 1126.14
774.5 1346.71
775.5 1330.14
776.5 1269.29
777.5 1262.86
778.5 1299.86
779.5 1106.57
780.5 1312.14
781.5 1180.14
782.5 1147.29
783.5 1334.43
784.5 1529.57
785.5 1557.14
786.5 1449.57
787.5 1358.43
788.5 1325.43
789.5 1222
790.5 1323.57
791.5 1276.43
792.5 1373.71
793.5 1396.29
794.5 1381.43
795.5 1183.71
796.5 1338
797.5 1310.43
798.5 1338.29
799.5 1256.86
800.5 1336
801.5 1198
802.5 1054.29
803.5 1088.86
804.5 1059.86
805.5 866.286
806.5 835.857
807.5 724
808.5 1075
809.5 1354.43
810.5 1260
811.5 1232.29
812.5 1392.71
813.5 1173
814.5 1282.71
815.5 1065.43
816.5 1162.57
817.5 1070.71
818.5 1258.71
819.5 1559.43
820.5 1482.29
821.5 1306
822.5 1230.29
823.5 1173.14
824.5 1035.57
825.5 1340.43
826.5 1194.86
827.5 1163.71
828.5 1194.86
829.5 1005.14
830.5 1249.43
831.5 1085
832.5 1230
833.5 1285.57
834.5 1210.86
835.5 1114.29
836.5 1255.14
837.5 1167.86
838.5 1268.86
839.5 1266.43
840.5 1098.29
841.5 1236.86
842.5 1184.14
843.5 1197.29
844.5 1186.86
845.5 1066
846.5 1245.86
847.5 1273
848.5 1221.14
849.5 1166.43
850.5 1204
851.5 1185.86
852.5 1231.71
853.5 1251.43
854.5 1224.71
855.5 1225.14
856.5 1214.14
857.5 1102.43
858.5 1168.71
859.5 1316.86
860.5 1195.29
861.5 1223.71
862.5 1287.43
863.5 1294.86
864.5 1307.43
865.5 1545.86
866.5 3139.57
867.5 10934.4
868.5 30235.4
869.5 36710.3
870.5 19106.7
871.5 5474.57
872.5 2053.29
873.5 1367.43
874.5 1323.71
875.5 1378.43
876.5 1121.43
877.5 1131.43
878.5 1043.57
879.5 1083.57
880.5 1191.43
881.5 1187.86
882.5 1208.57
883.5 1199.86
884.5 1139.57
885.5 1138
886.5 1153.57
887.5 1138.29
888.5 1020
889.5 1209
890.5 1269.14
891.5 1283.86
892.5 1328.71
893.5 1323.71
894.5 1249.86
895.5 1255
896.5 1268.29
897.5 1319.43
898.5 1345.14
899.5 1336.29
900.5 1238.14
901.5 1234.43
902.5 1325.43
903.5 1289.14
904.5 1320
905.5 1348.57
906.5 1451.14
907.5 1452.43
908.5 1400
909.5 1545.43
910.5 1345.14
911.5 1376.29
912.5 1411.29
913.5 1475.57
914.5 1446.29
915.5 1404.71
916.5 1394.14
917.5 1268.57
918.5 1359.29
919.5 1341.43
920.5 1188.86
921.5 1208.86
922.5 1152
923.5 1200
924.5 1355.29
925.5 1170.57
926.5 1311.57
927.5 1385.86
928.5 1203
929.5 1136.14
930.5 1271.71
931.5 1238.86
932.5 1285.43
933.5 1197.86
934.5 1209
935.5 1360.29
936.5 1235.71
937.5 1285.43
938.5 1385.14
939.5 1206.57
940.5 1342.29
941.5 1321.14
942.5 1241
943.5 1238
944.5 1324.86
945.5 1172.71
946.5 1110.29
947.5 1068.29
948.5 1216.14
949.5 1142
950.5 1074.86
951.5 1011.29
952.5 1084
953.5 1063.57
954.5 878.571
955.5 808.143
956.5 859.143
957.5 883.143
958.5 940
959.5 1003.71
960.5 1049.14
961.5 796.714
962.5 917.143
963.5 917.429
964.5 960.143
965.5 926
966.5 981.143
967.5 980.714
968.5 1091.71
969.5 995
970.5 932
971.5 853.571
972.5 859.286
973.5 739.286
974.5 761.429
975.5 777.857
976.5 840.286
977.5 914.429
978.5 1004.29
979.5 849.286
980.5 816.286
981.5 936.286
982.5 846.714
983.5 824.714
984.5 790.286
985.5 809.714
986.5 768.857
987.5 903
988.5 809.571
989.5 871.143
990.5 944.714
991.5 930.857
992.5 945.857
993.5 895.571
994.5 872.571
995.5 1176.43
996.5 1099.86
997.5 1113.71
998.5 1370.86
999.5 4228
1000.5 13678.6
1001.5 27693.1
1002.5 25123.3
1003.5 9813.71
1004.5 2442.71
1005.5 1206.43
1006.5 774.429
1007.5 499.571
1008.5 584.571
1009.5 630.857
1010.5 728
1011.5 649.429
1012.5 667.429
1013.5 656.857
1014.5 704.714
1015.5 614.857
1016.5 596.286
1017.5 610.714
1018.5 619.571
1019.5 586.714
1020.5 636.571
1021.5 587.429
1022.5 704.857
1023.5 759.857
1024.5 849
1025.5 602
1026.5 280
1027.5 129.571
1028.5 247.429
1029.5 341.714
1030.5 316.857
1031.5 470.571
1032.5 432.571
1033.5 491.857
1034.5 166.286
1035.5 208.286
1036.5 366.143
1037.5 544.714
1038.5 1139.57
1039.5 1466.29
1040.5 1636
1041.5 1492.14
1042.5 1097
1043.5 743.143
1044.5 402.286
1045.5 -90.1429
1046.5 170.143
1047.5 173.714
1048.5 278.857
1049.5 552.143
1050.5 506.143
1051.5 406.857
1052.5 581.143
1053.5 472.857
1054.5 494.429
1055.5 461.286
1056.5 488
1057.5 475
1058.5 586.143
1059.5 665.571
1060.5 649.143
1061.5 606.143
1062.5 345.714
1063.5 415
1064.5 486.571
1065.5 413.714
1066.5 465.857
1067.5 427.429
1068.5 391
1069.5 376.571
1070.5 433.571
1071.5 486.143
1072.5 488.571
1073.5 802.571
1074.5 841.714
1075.5 503.429
1076.5 518.143
1077.5 441.286
1078.5 462
1079.5 473.857
1080.5 540.286
1081.5 460.429
1082.5 445.857
1083.5 406.571
1084.5 414.857
1085.5 408.143
1086.5 425.143
1087.5 392.143
1088.5 459.286
1089.5 447.714
1090.5 468
1091.5 366.429
1092.5 436.429
1093.5 476
1094.5 451.429
1095.5 394.714
1096.5 484.857
1097.5 380.571
1098.5 431.429
1099.5 494.857
1100.5 435
1101.5 482.286
1102.5 335.429
1103.5 371.429
1104.5 467.429
1105.5 398.857
1106.5 488.857
1107.5 428.286
1108.5 541.714
1109.5 407.571
1110.5 420.429
1111.5 444.143
1112.5 484.429
1113.5 605.571
1114.5 690.714
1115.5 555.571
1116.5 478.571
1117.5 486.714
1118.5 448
1119.5 448.857
1120.5 367.429
1121.5 557.857
1122.5 1157.43
1123.5 4599.14
1124.5 16112.9
1125.5 38919
1126.5 43370.7
1127.5 19853.4
1128.5 4494.86
1129.5 977.571
1130.5 614.571
1131.5 394
1132.5 362.286
1133.5 306.857
1134.5 306.571
1135.5 311.286
1136.5 284.857
1137.5 338.714
1138.5 289.143
1139.5 253.857
1140.5 313.143
1141.5 338.429
1142.5 329
1143.5 380.429
1144.5 258.714
1145.5 249.429
1146.5 352
1147.5 256
1148.5 399.571
1149.5 319.571
1150.5 411.286
1151.5 378.571
1152.5 510.143
1153.5 1645
1154.5 6931.71
1155.5 23747
1156.5 52849.9
1157.5 53934
1158.5 22333.6
1159.5 4654
1160.5 1007.86
1161.5 477.571
1162.5 350.714
1163.5 271.857
1164.5 246.143
1165.5 103.857
1166.5 103.286
1167.5 49.2857
1168.5 236.857
1169.5 192.857
1170.5 186
1171.5 214.571
1172.5 260.286
1173.5 191.571
1174.5 194.286
1175.5 168.714
1176.5 203.857
1177.5 228.857
1178.5 232.286
1179.5 197
1180.5 208.857
1181.5 183.571
1182.5 235.857
1183.5 273
1184.5 270.857
1185.5 -34.5714
1186.5 130.714
1187.5 83.7143
1188.5 164.143
1189.5 222.571
1190.5 223.143
1191.5 141.857
1192.5 193.857
1193.5 141.857
1194.5 169
1195.5 97
1196.5 218.429
1197.5 129.857
1198.5 102.571
1199.5 167.286
1200.5 126.429
1201.5 189.286
1202.5 96.1428
1203.5 267.429
1204.5 241.857
1205.5 213.571
1206.5 246.571
1207.5 195
1208.5 209
1209.5 137.571
1210.5 188.571
1211.5 88.5714
1212.5 197.143
1213.5 157
1214.5 138.143
1215.5 139.571
1216.5 172.143
1217.5 180.857
1218.5 216.143
1219.5 178.286
1220.5 154.857
1221.5 79.1428
1222.5 152.714
1223.5 114
1224.5 154.286
1225.5 195.429
1226.5 178.857
1227.5 172
1228.5 207.143
1229.5 148.286
1230.5 197.714
1231.5 107.429
1232.5 143.571
1233.5 180.571
1234.5 241.857
1235.5 206
1236.5 152.143
1237.5 141.143
1238.5 107.571
1239.5 172
1240.5 191.857
1241.5 203.571
1242.5 208.857
1243.5 181
1244.5 268.143
1245.5 179.143
1246.5 155.143
1247.5 246.714
1248.5 275.714
1249.5 219.429
1250.5 173.286
1251.5 173.571
1252.5 163
1253.5 243.571
1254.5 142.857
1255.5 224.571
1256.5 152.286
1257.5 129
1258.5 135.143
1259.5 92.7143
1260.5 201.429
1261.5 146.857
1262.5 164
1263.5 195.714
1264.5 112.571
1265.5 60.4286
1266.5 174.571
1267.5 226.286
1268.5 287.714
1269.5 379.286
1270.5 365.143
1271.5 245
1272.5 195.714
1273.5 145.714
1274.5 194.143
1275.5 164.286
1276.5 183.857
1277.5 139.429
1278.5 104.286
1279.5 259
1280.5 140.714
1281.5 203.571
1282.5 201.143
1283.5 204.143
1284.5 248.286
1285.5 183.714
1286.5 134.714
1287.5 264.143
1288.5 171.143
1289.5 183.857
1290.5 123.143
1291.5 209.429
1292.5 217
1293.5 113.143
1294.5 157
1295.5 140.571
1296.5 140.714
1297.5 110
1298.5 156.143
1299.5 209.857
1300.5 234.714
1301.5 82.7143
1302.5 228.857
1303.5 144.571
1304.5 192
1305.5 123.429
1306.5 138.571
1307.5 216.857
1308.5 218.571
1309.5 152.857
1310.5 133
1311.5 121.143
1312.5 40.8571
1313.5 156.714
1314.5 188
1315.5 221.143
1316.5 204
1317.5 164.286
1318.5 165.571
1319.5 124.857
1320.5 223.571
1321.5 123
1322.5 107.429
1323.5 171.714
1324.5 278.857
1325.5 203.857
1326.5 175.286
1327.5 191.857
1328.5 128.571
1329.5 215.571
1330.5 182
1331.5 168.571
1332.5 148.714
1333.5 209.857
1334.5 203.429
1335.5 200.857
1336.5 185.429
1337.5 229.571
1338.5 191.286
1339.5 194.714
1340.5 163.286
1341.5 182.857
1342.5 181.286
1343.5 156.429
1344.5 187
1345.5 213.857
1346.5 158.857
1347.5 259.857
1348.5 165.286
1349.5 192.429
1350.5 99
1351.5 110.857
1352.5 53.7143
1353.5 150.429
1354.5 152.286
1355.5 169
1356.5 138.286
1357.5 248.429
1358.5 190.143
1359.5 212.571
1360.5 205.857
1361.5 168.143
1362.5 182
1363.5 184.143
1364.5 168.286
1365.5 138.571
1366.5 166.286
1367.5 236.714
1368.5 228
1369.5 254.429
1370.5 153.286
1371.5 245.857
1372.5 217.429
1373.5 225.857
1374.5 300.429
1375.5 292
1376.5 206.714
1377.5 283
1378.5 198
1379.5 144.143
1380.5 139.143
1381.5 143.143
1382.5 191.286
1383.5 184.857
1384.5 168.714
1385.5 193.429
1386.5 125.714
1387.5 182.429
1388.5 178.571
1389.5 127.714
1390.5 174.857
1391.5 187.714
1392.5 155
1393.5 183.571
1394.5 233.286
1395.5 257.429
1396.5 199.857
1397.5 115.429
1398.5 150.571
1399.5 144.286
1400.5 236.571
1401.5 172.571
1402.5 203.857
1403.5 194.714
1404.5 129.571
1405.5 149.286
1406.5 175.571
1407.5 340.857
1408.5 362.714
1409.5 359.429
1410.5 175.429
1411.5 192
1412.5 129.143
1413.5 173.429
1414.5 140.286
1415.5 135.571
1416.5 120
1417.5 156
1418.5 153.286
1419.5 189.429
1420.5 123.714
1421.5 178.571
1422.5 233.429
1423.5 259.429
1424.5 156.429
1425.5 195.429
1426.5 242
1427.5 298.571
1428.5 263.714
1429.5 274.429
1430.5 212.429
1431.5 202.714
1432.5 160
1433.5 152.857
1434.5 187.571
1435.5 216.714
1436.5 184
1437.5 190.429
1438.5 177.714
1439.5 205.429
1440.5 248.286
1441.5 103.714
1442.5 234.429
1443.5 158.714
1444.5 159.143
1445.5 171.143
1446.5 210.429
1447.5 147.571
1448.5 79.8571
