# EGG_ProjY_E1194.5(2.5)_B1178.0(2.0)_B1210.5(1.5)
# X axis : Energy (keV) [Y axis]
# Y axis : Counts/1 keV
# N Bins : 12000
# X Min : 0
# X Max : 12000
# X value at the center of the bins
0.5 0
1.5 0
2.5 0
3.5 0
4.5 0
5.5 -9.85714
6.5 -3
7.5 2.57143
8.5 5.42857
9.5 -15
10.5 -19.4286
11.5 -1.71429
12.5 1.42857
13.5 -5.57143
14.5 5.28571
15.5 -24.2857
16.5 -11.5714
17.5 -1.85715
18.5 25.4286
19.5 -19
20.5 -6.57145
21.5 97.4285
22.5 47.8571
23.5 83.4285
24.5 50.7142
25.5 28.7142
26.5 -4.00005
27.5 118.429
28.5 44.5714
29.5 -11.8572
30.5 57.2856
31.5 73.4285
32.5 -80.8572
33.5 64.1428
34.5 -42.8572
35.5 51.7142
36.5 67.7142
37.5 88.7142
38.5 -2.57152
39.5 -161.429
40.5 -145.572
41.5 -128.429
42.5 -396
43.5 -588.429
44.5 -137.572
45.5 73.5713
46.5 -18.143
47.5 -121.857
48.5 -195.714
49.5 -95.8573
50.5 -54.4287
51.5 31.4285
52.5 -11.2858
53.5 -22.7144
54.5 110.143
55.5 86.1428
56.5 129.857
57.5 125.571
58.5 55.7142
59.5 -31.7144
60.5 121.428
61.5 120.286
62.5 154
63.5 5.85704
64.5 36.1428
65.5 -32.2858
66.5 102.714
67.5 -66.143
68.5 15.1427
69.5 54.857
70.5 -76.4287
71.5 174.714
72.5 -278.143
73.5 -149
74.5 82.9998
75.5 36.5713
76.5 -17.8573
77.5 313
78.5 -23.7144
79.5 -190.857
80.5 -213.429
81.5 -68.7144
82.5 50.857
83.5 86.1428
84.5 -183.572
85.5 35.4285
86.5 -30.143
87.5 38.2856
88.5 -222.714
89.5 -165.429
90.5 130.428
91.5 -17.0001
92.5 144.714
93.5 -27.2858
94.5 217
95.5 96.1428
96.5 10.4285
97.5 217.571
98.5 171
99.5 150.571
100.5 111.143
101.5 115.714
102.5 32.7142
103.5 77.4285
104.5 184.714
105.5 58.5713
106.5 175
107.5 -53.7144
108.5 93.5713
109.5 132.571
110.5 136.571
111.5 -54.0001
112.5 -11.2858
113.5 77.5713
114.5 -78.2858
115.5 -81.2858
116.5 1.28559
117.5 -53.5716
118.5 110.143
119.5 105.571
120.5 31.857
121.5 48.4284
122.5 121.286
123.5 169.714
124.5 -53.143
125.5 111.714
126.5 -74.8573
127.5 116.143
128.5 85.857
129.5 75.4284
130.5 -28.0001
131.5 -27.0001
132.5 7.28558
133.5 92.4284
134.5 -20.0001
135.5 -7.42871
136.5 51.2856
137.5 134.428
138.5 96.1427
139.5 5.28557
140.5 -176.286
141.5 106.714
142.5 -33.5716
143.5 14.857
144.5 -137.286
145.5 283.571
146.5 125.857
147.5 44.4284
148.5 105.714
149.5 -19.143
150.5 0.285564
151.5 -47.5716
152.5 215.286
153.5 44.1427
154.5 84.2856
155.5 233.857
156.5 58.5713
157.5 205.428
158.5 179.286
159.5 42.7141
160.5 10.857
161.5 142.571
162.5 157.571
163.5 65.2856
164.5 192.714
165.5 116.857
166.5 -202.572
167.5 183.857
168.5 -50.8573
169.5 80.1427
170.5 15.7141
171.5 -76.4287
172.5 -150
173.5 71.1426
174.5 -243.715
175.5 29.9998
176.5 131.143
177.5 -112.857
178.5 131.286
179.5 178
180.5 260.286
181.5 157.428
182.5 93.7141
183.5 221
184.5 403.143
185.5 126.428
186.5 89.9999
187.5 322.143
188.5 350.857
189.5 182.428
190.5 223
191.5 289.428
192.5 212.714
193.5 192.714
194.5 178.714
195.5 165.714
196.5 127.714
197.5 -134.429
198.5 -583.429
199.5 -735.286
200.5 -355.143
201.5 -293
202.5 -203.572
203.5 -115.143
204.5 79.2856
205.5 -3.85729
206.5 -68.143
207.5 -207.286
208.5 -226.143
209.5 -208.429
210.5 -111.857
211.5 3.28556
212.5 -30.8573
213.5 208.714
214.5 -58.7144
215.5 -145.714
216.5 -359.429
217.5 -666.143
218.5 -607.286
219.5 -361.143
220.5 -59.2859
221.5 10.7141
222.5 108
223.5 -74.2859
224.5 326.571
225.5 312
226.5 297
227.5 222.714
228.5 -15.2859
229.5 294.857
230.5 382.714
231.5 851.143
232.5 1074
233.5 1213
234.5 1300.43
235.5 975.857
236.5 714.143
237.5 343.428
238.5 252.286
239.5 134.714
240.5 195.286
241.5 244.428
242.5 138.714
243.5 118.571
244.5 63.7141
245.5 8.57129
246.5 105
247.5 193.857
248.5 -410.857
249.5 -844.572
250.5 -610.572
251.5 -830.429
252.5 -627.572
253.5 -235.714
254.5 9.42844
255.5 146.714
256.5 60.7142
257.5 57.2856
258.5 83.2856
259.5 -59.8573
260.5 31.7142
261.5 -72.2858
262.5 216
263.5 216
264.5 236.286
265.5 495.428
266.5 330.714
267.5 261.286
268.5 224.714
269.5 157.714
270.5 144.714
271.5 92.2856
272.5 83.9999
273.5 165.857
274.5 88.9999
275.5 308
276.5 206
277.5 49.2856
278.5 159.286
279.5 139.428
280.5 -96.143
281.5 -270.286
282.5 -237.286
283.5 -138.429
284.5 -254.572
285.5 -312.857
286.5 -536.429
287.5 -1035
288.5 -1396.43
289.5 -1234.43
290.5 -681
291.5 -315
292.5 109.571
293.5 45.7142
294.5 130.143
295.5 219.714
296.5 123
297.5 -63.2858
298.5 145.143
299.5 158.143
300.5 491.714
301.5 1033
302.5 1683.14
303.5 2281.71
304.5 2670.57
305.5 2570.71
306.5 1768
307.5 1170.43
308.5 565.857
309.5 175.571
310.5 71.857
311.5 211
312.5 199.143
313.5 138.286
314.5 376.857
315.5 142.857
316.5 110.714
317.5 -173.286
318.5 -608.286
319.5 -1088.29
320.5 -1576.57
321.5 -1621.71
322.5 -1130.29
323.5 -657.286
324.5 -272.429
325.5 -27.5715
326.5 -64.7144
327.5 -218.143
328.5 -144.143
329.5 -241.857
330.5 -264
331.5 -143.286
332.5 -132.572
333.5 -148.572
334.5 -46.5715
335.5 3.71419
336.5 22.4285
337.5 -1.2858
338.5 15.4285
339.5 -194.572
340.5 -33.4287
341.5 171
342.5 280.857
343.5 289.857
344.5 391.286
345.5 513.428
346.5 463.714
347.5 366.286
348.5 118.571
349.5 377.143
350.5 171
351.5 114.286
352.5 54.2856
353.5 137.286
354.5 125.857
355.5 116
356.5 -29.8572
357.5 16.2856
358.5 -45.7144
359.5 -29.1429
360.5 -194.714
361.5 -262.714
362.5 -161.572
363.5 -219.572
364.5 -194.714
365.5 -196.286
366.5 64.4285
367.5 107
368.5 -29.4287
369.5 13.8571
370.5 -19.0001
371.5 69.9999
372.5 145.857
373.5 -42.0001
374.5 23.9999
375.5 -18.1429
376.5 -102.429
377.5 12.9999
378.5 -60.8572
379.5 140.571
380.5 166.571
381.5 135
382.5 228.143
383.5 183.857
384.5 50.7142
385.5 206
386.5 15.1428
387.5 20.1428
388.5 -79.2858
389.5 95.2856
390.5 191.857
391.5 202.571
392.5 260
393.5 319.286
394.5 242.428
395.5 286.286
396.5 43.5714
397.5 -0.285786
398.5 -77.2858
399.5 -20.4286
400.5 -11.2858
401.5 -28.7144
402.5 657
403.5 2651.57
404.5 2758.14
405.5 1166.29
406.5 338.857
407.5 43.7142
408.5 139.286
409.5 -99.4286
410.5 -206
411.5 -139.714
412.5 3.4285
413.5 -213.143
414.5 -68.8572
415.5 -34.1429
416.5 -92.5715
417.5 -36.2858
418.5 -60.4286
419.5 -315.572
420.5 -730.714
421.5 -1163.14
422.5 -1320.71
423.5 -1217.43
424.5 -635.429
425.5 -303.857
426.5 120.286
427.5 177.286
428.5 -12.4286
429.5 170.857
430.5 56.9999
431.5 31.5714
432.5 110.714
433.5 250.429
434.5 354.571
435.5 821.857
436.5 1464.57
437.5 1978.71
438.5 2333.14
439.5 2128
440.5 1664.14
441.5 1160.14
442.5 603
443.5 472.857
444.5 525.857
445.5 472.857
446.5 340.143
447.5 149
448.5 96.2857
449.5 206
450.5 77.2856
451.5 122.286
452.5 -117.857
453.5 -566.286
454.5 -838.143
455.5 -1053.14
456.5 -776.714
457.5 -493.857
458.5 -389.571
459.5 -71.8572
460.5 -8.71435
461.5 -157
462.5 -35.1429
463.5 -47.7144
464.5 -34.8572
465.5 101
466.5 -9.42864
467.5 -152
468.5 -82.0001
469.5 -220.857
470.5 -336.286
471.5 -213.286
472.5 21.8571
473.5 56.7142
474.5 37.4285
475.5 125.857
476.5 181.143
477.5 15.4285
478.5 148.714
479.5 62.8571
480.5 20.9999
481.5 55.5714
482.5 104.571
483.5 62.8571
484.5 72.2857
485.5 88.5714
486.5 22.1428
487.5 167.143
488.5 21.9999
489.5 27.4285
490.5 -3.42863
491.5 107
492.5 46.2857
493.5 0.1428
494.5 76.5714
495.5 -9.8572
496.5 11.7142
497.5 73.9999
498.5 75.7142
499.5 30.8571
500.5 4.85708
501.5 24.4285
502.5 -21.2858
503.5 134.571
504.5 59.4285
505.5 16.4285
506.5 32.9999
507.5 -54.4287
508.5 -455.143
509.5 -1204.71
510.5 -1419
511.5 -1345.86
512.5 -497.286
513.5 -259
514.5 -44.0001
515.5 -130
516.5 -42.8572
517.5 46.9999
518.5 155.286
519.5 -52.5715
520.5 -27.8572
521.5 28.1428
522.5 102.143
523.5 113.143
524.5 79.1428
525.5 61.4285
526.5 14.7142
527.5 168.714
528.5 209.571
529.5 232.286
530.5 292.286
531.5 438.286
532.5 256.286
533.5 227.714
534.5 114.429
535.5 241.714
536.5 73.4285
537.5 -6.42862
538.5 -24.4286
539.5 27.4285
540.5 73.7142
541.5 -6.1429
542.5 58.5714
543.5 -57.4286
544.5 -18.2858
545.5 -46.7143
546.5 49.8571
547.5 -79.0001
548.5 -145
549.5 -78.0001
550.5 -2.85719
551.5 46.2857
552.5 -44.8572
553.5 44.4285
554.5 87.5714
555.5 66.8571
556.5 131.429
557.5 97.8571
558.5 148.714
559.5 -25.7143
560.5 26.4285
561.5 -39.2858
562.5 -46
563.5 -23.1429
564.5 -31.8572
565.5 -61.4286
566.5 -29.1429
567.5 -107.143
568.5 -114.857
569.5 29.2857
570.5 88.8571
571.5 187
572.5 103.571
573.5 23.4285
574.5 32.1428
575.5 159.429
576.5 191.857
577.5 167.286
578.5 106
579.5 248.857
580.5 283.429
581.5 337.857
582.5 350.143
583.5 444.571
584.5 475.143
585.5 582.143
586.5 263
587.5 272.714
588.5 26.5714
589.5 89.4285
590.5 60.5714
591.5 92.4285
592.5 111.429
593.5 12.2857
594.5 39.1428
595.5 -105.571
596.5 -142.857
597.5 -42.8572
598.5 -236.714
599.5 -349.429
600.5 -191.571
601.5 -130.429
602.5 -79.7143
603.5 58.7142
604.5 65.7142
605.5 36.5714
606.5 -28.8572
607.5 54.8571
608.5 51
609.5 48.8571
610.5 -29.8572
611.5 152.429
612.5 107.429
613.5 212.429
614.5 255.857
615.5 109.571
616.5 41.2857
617.5 205
618.5 62.8571
619.5 63.7142
620.5 27.8571
621.5 36.1428
622.5 121.571
623.5 61.8571
624.5 139
625.5 109.286
626.5 44.4285
627.5 -375.429
628.5 -627.714
629.5 -281.143
630.5 22.8571
631.5 -17.8572
632.5 9.99996
633.5 6.99996
634.5 113.714
635.5 81.1428
636.5 -45.4286
637.5 -206.714
638.5 -162.286
639.5 -55
640.5 -22.4286
641.5 57.5714
642.5 80.2857
643.5 86.5714
644.5 55.5714
645.5 59.8571
646.5 88
647.5 104.286
648.5 95
649.5 -224.571
650.5 -425.857
651.5 -193.429
652.5 -116
653.5 7.42852
654.5 33.5714
655.5 65.7142
656.5 -18.0001
657.5 -11.2858
658.5 66
659.5 -50.7143
660.5 71.1428
661.5 -57.5715
662.5 -59.5715
663.5 -27.5715
664.5 -53.0001
665.5 106.429
666.5 124.571
667.5 130.571
668.5 126.714
669.5 116
670.5 18.5714
671.5 69.4285
672.5 -1.28575
673.5 -36.5715
674.5 -31.5715
675.5 32.8571
676.5 41.5714
677.5 225.286
678.5 154.857
679.5 164
680.5 153.857
681.5 103.714
682.5 18
683.5 78.4285
684.5 117.857
685.5 179.286
686.5 196.571
687.5 290.143
688.5 296.714
689.5 406.571
690.5 414.286
691.5 462
692.5 382.143
693.5 260.714
694.5 259.714
695.5 41.5714
696.5 55.2857
697.5 86.4285
698.5 70.1428
699.5 -21.4286
700.5 35.2857
701.5 25.8571
702.5 -10
703.5 78.4285
704.5 -50.8572
705.5 12.1428
706.5 -226.857
707.5 -154.571
708.5 -169.143
709.5 -90
710.5 -175.286
711.5 -9.57147
712.5 -23.5715
713.5 81
714.5 70.2857
715.5 141.429
716.5 102.857
717.5 113.714
718.5 90
719.5 70.4285
720.5 129.714
721.5 187
722.5 168.857
723.5 209.143
724.5 104
725.5 40.8571
726.5 30.4285
727.5 33.1428
728.5 -42.1429
729.5 76.2857
730.5 -25.8572
731.5 -4.42861
732.5 -37.8572
733.5 26.7142
734.5 95.1428
735.5 44.2857
736.5 24.5714
737.5 90.5714
738.5 68.2857
739.5 89.8571
740.5 -29.8572
741.5 65.1428
742.5 52.4285
743.5 37
744.5 186
745.5 179.143
746.5 150.714
747.5 203.857
748.5 189.429
749.5 145
750.5 56.4285
751.5 105.429
752.5 123.286
753.5 153.143
754.5 133.429
755.5 87.4285
756.5 122
757.5 156.143
758.5 170.857
759.5 -17.2858
760.5 -152.857
761.5 -289
762.5 -53.4287
763.5 -9.00005
764.5 43.5714
765.5 138.429
766.5 -6.42861
767.5 86.1428
768.5 102.714
769.5 26.2857
770.5 -33
771.5 -89.8572
772.5 36.8571
773.5 63.1428
774.5 -37.4286
775.5 21.5714
776.5 0.999962
777.5 111.429
778.5 27.5714
779.5 42.8571
780.5 -36.4286
781.5 -24.8572
782.5 30.4285
783.5 47.1428
784.5 91.8571
785.5 146
786.5 152.714
787.5 118.429
788.5 59.5714
789.5 51.5714
790.5 106.571
791.5 116.714
792.5 15
793.5 81.2857
794.5 45.8571
795.5 234.143
796.5 87
797.5 114.286
798.5 137.714
799.5 106
800.5 117.286
801.5 41.4285
802.5 170.286
803.5 181.143
804.5 206
805.5 810.286
806.5 1760.86
807.5 1696.14
808.5 620
809.5 170.857
810.5 97.7142
811.5 82.1428
812.5 78.8571
813.5 -7.85719
814.5 -0.571471
815.5 -15.8572
816.5 22.7142
817.5 43.5714
818.5 -27
819.5 119.571
820.5 150.857
821.5 13.7142
822.5 65.1428
823.5 82.1428
824.5 80.5714
825.5 72.7143
826.5 168
827.5 94.8571
828.5 99.5714
829.5 44.4285
830.5 59.5714
831.5 106
832.5 127.857
833.5 210.143
834.5 60
835.5 70.8571
836.5 139.429
837.5 86.4285
838.5 75.8571
839.5 78.8571
840.5 74
841.5 45.4285
842.5 52
843.5 43.2857
844.5 25.5714
845.5 -31.5715
846.5 26.1428
847.5 83.7142
848.5 20.8571
849.5 148.286
850.5 150.857
851.5 9.14282
852.5 53.2857
853.5 141.571
854.5 48
855.5 122.143
856.5 75.2857
857.5 205.429
858.5 153.857
859.5 126
860.5 103.286
861.5 74.8571
862.5 120.143
863.5 76.7142
864.5 115.429
865.5 48.4285
866.5 -102.857
867.5 -200.286
868.5 -478.572
869.5 -236.857
870.5 -32.1429
871.5 123.429
872.5 93.5714
873.5 99.8571
874.5 5.28567
875.5 34.2857
876.5 16.7142
877.5 -12.7143
878.5 -96.1429
879.5 89.8571
880.5 195.286
881.5 21.8571
882.5 79.7142
883.5 62
884.5 156.714
885.5 82.5714
886.5 78.7142
887.5 121.714
888.5 107.286
889.5 52.4285
890.5 81.4285
891.5 66.2857
892.5 119.286
893.5 168.143
894.5 79.1428
895.5 104.857
896.5 86.4285
897.5 114.857
898.5 20.2857
899.5 105.286
900.5 -0.57147
901.5 138.857
902.5 75.1428
903.5 197.571
904.5 47.1428
905.5 179.571
906.5 172.857
907.5 96.8571
908.5 69.4285
909.5 177.143
910.5 81.1428
911.5 237.143
912.5 32.8571
913.5 70.2857
914.5 90
915.5 54.1428
916.5 16.4285
917.5 165
918.5 140.857
919.5 147
920.5 227.857
921.5 14.7142
922.5 121.286
923.5 101.429
924.5 48.1428
925.5 90.5714
926.5 88.2857
927.5 156.143
928.5 65.7142
929.5 155.143
930.5 87.4285
931.5 108.143
932.5 33.1428
933.5 37.4285
934.5 145.571
935.5 29.4285
936.5 99.8571
937.5 -35.5715
938.5 -61.4286
939.5 136.571
940.5 52.7142
941.5 98.8571
942.5 143
943.5 38.1428
944.5 151.429
945.5 181.429
946.5 193.143
947.5 193.857
948.5 175.571
949.5 156.857
950.5 71.8571
951.5 189.714
952.5 93.7143
953.5 249.857
954.5 275.571
955.5 287.429
956.5 284.429
957.5 252.571
958.5 136.857
959.5 113.429
960.5 -48
961.5 60.2857
962.5 -22.5715
963.5 13.4285
964.5 84.5714
965.5 -41.7143
966.5 95.1428
967.5 -68.4286
968.5 10.8571
969.5 2.28568
970.5 -53.8572
971.5 77.2857
972.5 -85.1429
973.5 -4.85718
974.5 -40
975.5 33
976.5 -37.5715
977.5 82
978.5 61.2857
979.5 147
980.5 59.5714
981.5 1.85711
982.5 -3.00004
983.5 140.429
984.5 103.714
985.5 150.286
986.5 96.1428
987.5 20.4285
988.5 12.1428
989.5 -1.4286
990.5 52.7143
991.5 91.2857
992.5 -14
993.5 18.4285
994.5 82.4285
995.5 83.5714
996.5 62.5714
997.5 44.1428
998.5 -43.2857
999.5 164.571
1000.5 575.857
1001.5 1046.43
1002.5 886.143
1003.5 434.286
1004.5 94.8571
1005.5 95.5714
1006.5 118.571
1007.5 104.857
1008.5 74.5714
1009.5 -154.429
1010.5 -317
1011.5 -477
1012.5 -463.429
1013.5 -336.429
1014.5 -77
1015.5 121.571
1016.5 317.429
1017.5 343.571
1018.5 82.8571
1019.5 32
1020.5 4.71426
1021.5 -7.57146
1022.5 133.286
1023.5 243.429
1024.5 656.571
1025.5 895.429
1026.5 990.857
1027.5 1006.14
1028.5 1005.71
1029.5 910.429
1030.5 802.714
1031.5 463.286
1032.5 229
1033.5 5.85712
1034.5 76.5714
1035.5 -14.2857
1036.5 63.2857
1037.5 139.857
1038.5 3.14283
1039.5 62.5714
1040.5 18.1428
1041.5 -132.429
1042.5 -282.571
1043.5 -525.571
1044.5 -596.857
1045.5 -572.286
1046.5 -324.857
1047.5 -228.857
1048.5 -29.5715
1049.5 -0.142886
1050.5 34.5714
1051.5 -45.7143
1052.5 64.8571
1053.5 -8.42859
1054.5 92.1428
1055.5 100.286
1056.5 5.14283
1057.5 162.429
1058.5 47.8571
1059.5 1.71426
1060.5 11.8571
1061.5 56.8571
1062.5 75.1428
1063.5 67.4286
1064.5 14.2857
1065.5 58
1066.5 39.5714
1067.5 -57.2857
1068.5 -18
1069.5 48.4286
1070.5 -3.57145
1071.5 -18.1429
1072.5 -31.5715
1073.5 -60.143
1074.5 -11.143
1075.5 65.2856
1076.5 113.429
1077.5 25.8571
1078.5 -6.71431
1079.5 70.2857
1080.5 49.7143
1081.5 41.4286
1082.5 44.5714
1083.5 92.5714
1084.5 38.7143
1085.5 62.8571
1086.5 62.7143
1087.5 69.4286
1088.5 -18.2857
1089.5 99.7143
1090.5 232.143
1091.5 199.857
1092.5 127.714
1093.5 30.4286
1094.5 29.1428
1095.5 16
1096.5 31.1428
1097.5 -46.2857
1098.5 28.2857
1099.5 1.71427
1100.5 78.4286
1101.5 44.8571
1102.5 83.4286
1103.5 -14.5714
1104.5 36
1105.5 23.7143
1106.5 88.5714
1107.5 117
1108.5 46.8571
1109.5 61.1428
1110.5 49.7143
1111.5 -20.7143
1112.5 58
1113.5 16.2857
1114.5 51.7143
1115.5 45.8571
1116.5 52.1428
1117.5 -19.7143
1118.5 -1.85717
1119.5 15.1428
1120.5 38.5714
1121.5 33.1428
1122.5 155.714
1123.5 345.714
1124.5 1018
1125.5 2707.43
1126.5 2825.57
1127.5 1060.57
1128.5 502.857
1129.5 140.857
1130.5 6.85712
1131.5 -12.5714
1132.5 77.7143
1133.5 -5.00002
1134.5 0.999983
1135.5 20.1428
1136.5 -10.8572
1137.5 1.99998
1138.5 40.4286
1139.5 -39.1429
1140.5 30.8571
1141.5 30.4286
1142.5 62.4286
1143.5 34.8571
1144.5 53.1428
1145.5 45.1428
1146.5 52.1428
1147.5 8.14284
1148.5 40.4286
1149.5 42.1428
1150.5 63.8571
1151.5 19.4286
1152.5 25.4285
1153.5 70.8571
1154.5 641
1155.5 2049.86
1156.5 4638.71
1157.5 4843.86
1158.5 1956.57
1159.5 388
1160.5 72.1428
1161.5 9.71427
1162.5 -5.00002
1163.5 -13
1164.5 14.7143
1165.5 -35.8572
1166.5 23.5714
1167.5 42.1428
1168.5 -5.7143
1169.5 25.2857
1170.5 20.7143
1171.5 16
1172.5 12.8571
1173.5 54
1174.5 3.57141
1175.5 8.85713
1176.5 13.1428
1177.5 35.1428
1178.5 -29.5714
1179.5 -23
1180.5 -10.1429
1181.5 23.4286
1182.5 84.1428
1183.5 8.42855
1184.5 43.4286
1185.5 106.286
1186.5 60
1187.5 62.7143
1188.5 55.1428
1189.5 44.1428
1190.5 31.4286
1191.5 58.7143
1192.5 65.1428
1193.5 15.7143
1194.5 59
1195.5 10.4286
1196.5 30.8571
1197.5 53.5714
1198.5 -0.857156
1199.5 5.2857
1200.5 2.2857
1201.5 52.1428
1202.5 8.57141
1203.5 19.7143
1204.5 47.5714
1205.5 66.5714
1206.5 27.2857
1207.5 -41
1208.5 -16.7143
1209.5 22.4286
1210.5 50.7143
1211.5 35.7143
1212.5 20.2857
1213.5 0.857129
1214.5 14.5714
1215.5 -1.7143
1216.5 -11
1217.5 124.429
1218.5 161.286
1219.5 72.1428
1220.5 45.5714
1221.5 14
1222.5 2.71427
1223.5 20.1428
1224.5 -16.5714
1225.5 56.1428
1226.5 81.7143
1227.5 86.2857
1228.5 69.4286
1229.5 -35
1230.5 -2.85716
1231.5 -52.5714
1232.5 43.4286
1233.5 -43.8572
1234.5 0.428559
1235.5 -28.5714
1236.5 -2.42858
1237.5 18
1238.5 16.7143
1239.5 -3.57144
1240.5 28.7143
1241.5 57.5714
1242.5 18
1243.5 13.5714
1244.5 -11.4286
1245.5 6.99999
1246.5 3.99999
1247.5 16.8571
1248.5 -8.42858
1249.5 1.2857
1250.5 22.4286
1251.5 54.8571
1252.5 -4.42858
1253.5 13.1428
1254.5 27.2857
1255.5 22.4286
1256.5 -8.57144
1257.5 -1.57144
1258.5 22.7143
1259.5 29.4286
1260.5 15
1261.5 -34.7143
1262.5 5.71427
1263.5 22.5714
1264.5 -3.85716
1265.5 -40.4286
1266.5 -12
1267.5 26.4286
1268.5 0.714271
1269.5 42.2857
1270.5 31.8571
1271.5 28.4286
1272.5 23
1273.5 69.7143
1274.5 37.4286
1275.5 81.8571
1276.5 141
1277.5 101.571
1278.5 -4.85716
1279.5 -8.00001
1280.5 6.99999
1281.5 64.4286
1282.5 81.8571
1283.5 51.7143
1284.5 32.8571
1285.5 34.7143
1286.5 32.4286
1287.5 -29.4286
1288.5 14.2857
1289.5 77.1428
1290.5 40
1291.5 -7.00001
1292.5 90.8571
1293.5 16.7143
1294.5 -38.5714
1295.5 22.1428
1296.5 15.8571
1297.5 -15.4286
1298.5 41.5714
1299.5 47.4286
1300.5 3.2857
1301.5 8.57142
1302.5 -15.5714
1303.5 44.5714
1304.5 -15.7143
1305.5 5.42856
1306.5 6.85713
1307.5 -42.8572
1308.5 3.14284
1309.5 -0.714301
1310.5 87
1311.5 -18.2857
1312.5 35.1428
1313.5 5.99999
1314.5 24.2857
1315.5 37
1316.5 9.57142
1317.5 28.7143
1318.5 -4.42858
1319.5 6.14285
1320.5 24.1428
1321.5 21.8571
1322.5 37.2857
1323.5 20.4286
1324.5 35.5714
1325.5 41.1428
1326.5 -25.7143
1327.5 24
1328.5 -3.42858
1329.5 2.42856
1330.5 -30.4286
1331.5 0.571415
1332.5 -6.28573
1333.5 7.57142
1334.5 71.2857
1335.5 4.71427
1336.5 35.5714
1337.5 12.2857
1338.5 31.8571
1339.5 -4.85715
1340.5 9.42856
1341.5 -0.285726
1342.5 -61.7143
1343.5 -6.85715
1344.5 -2.28573
1345.5 11.7143
1346.5 12.2857
1347.5 23.1428
1348.5 -28.4286
1349.5 -15.7143
1350.5 15.1428
1351.5 -8.42858
1352.5 23.1428
1353.5 3.42856
1354.5 50.7143
1355.5 -44.7143
1356.5 9.85713
1357.5 -32.4286
1358.5 24.8571
1359.5 -19.2857
1360.5 25
1361.5 5.85713
1362.5 -1.28573
1363.5 64.7143
1364.5 -9.85715
1365.5 -17.7143
1366.5 -26.5714
1367.5 15.1428
1368.5 -19.1429
1369.5 28.2857
1370.5 17.5714
1371.5 -40.8572
1372.5 6.85713
1373.5 -32.7143
1374.5 2.14284
1375.5 38.8571
1376.5 7.85713
1377.5 23.4286
1378.5 44.7143
1379.5 23.2857
1380.5 32.8571
1381.5 9.85713
1382.5 10.8571
1383.5 37.7143
1384.5 3.57142
1385.5 42.7143
1386.5 -16.1429
1387.5 30.7143
1388.5 4.14284
1389.5 61
1390.5 57.5714
1391.5 -32.5714
1392.5 -3.85715
1393.5 -56.4286
1394.5 65.5714
1395.5 -12
1396.5 23.7143
1397.5 27.8571
1398.5 -28.2857
1399.5 -14
1400.5 -50.7143
1401.5 -26.5714
1402.5 26.4286
1403.5 -27.8572
1404.5 -23.4286
1405.5 -52.1429
1406.5 15
1407.5 7.42856
1408.5 -6.85715
1409.5 -8.42858
1410.5 3.57142
