# EGG_ProjY_E5006.5(4.5)_B4991.0(2.0)_B5019.5(1.5)
# X axis : Energy (keV) [Y axis]
# Y axis : Counts/1 keV
# N Bins : 12000
# X Min : 0
# X Max : 12000
# X value at the center of the bins
0.5 0
1.5 0
2.5 0
3.5 0
4.5 0
5.5 68.4286
6.5 133.143
7.5 -0.142856
8.5 4
9.5 37.5714
10.5 58.1429
11.5 35.7143
12.5 8.14286
13.5 47
14.5 57.4286
15.5 53
16.5 56.7143
17.5 26.1429
18.5 82
19.5 94.5714
20.5 117.429
21.5 164.857
22.5 151.857
23.5 155.714
24.5 196.286
25.5 231.429
26.5 220.714
27.5 320
28.5 255.286
29.5 256.571
30.5 331.714
31.5 287.429
32.5 388.857
33.5 280.857
34.5 405.143
35.5 438.571
36.5 387.857
37.5 435.286
38.5 387.286
39.5 444.714
40.5 514
41.5 441.143
42.5 490
43.5 475.286
44.5 389
45.5 385.286
46.5 353.143
47.5 512
48.5 529
49.5 472
50.5 441.286
51.5 530.429
52.5 470
53.5 520.571
54.5 558.857
55.5 644.714
56.5 525.429
57.5 796
58.5 791.143
59.5 815.714
60.5 767.429
61.5 703.571
62.5 745.286
63.5 652.714
64.5 653
65.5 663.857
66.5 826.143
67.5 903.143
68.5 709.571
69.5 658.857
70.5 687.143
71.5 664.429
72.5 722
73.5 798.571
74.5 1117.29
75.5 1123.43
76.5 1299.86
77.5 1392.43
78.5 881.857
79.5 544.857
80.5 610.286
81.5 520.857
82.5 524.143
83.5 626.571
84.5 510.286
85.5 517.286
86.5 841.143
87.5 834.857
88.5 686.714
89.5 775.143
90.5 649.143
91.5 650
92.5 637
93.5 542.857
94.5 607.571
95.5 492.429
96.5 552
97.5 581.429
98.5 683.571
99.5 702.857
100.5 739.429
101.5 729.714
102.5 693.429
103.5 826.143
104.5 1044.71
105.5 985
106.5 973.857
107.5 898.857
108.5 888.286
109.5 930.571
110.5 966.714
111.5 981.857
112.5 754.143
113.5 868.714
114.5 916.429
115.5 892.429
116.5 823.571
117.5 875.857
118.5 810.571
119.5 921
120.5 896
121.5 872.571
122.5 847.714
123.5 756.571
124.5 713.857
125.5 899.429
126.5 869.571
127.5 807
128.5 923.286
129.5 894.429
130.5 874.714
131.5 765.714
132.5 863.286
133.5 828.429
134.5 931.714
135.5 847
136.5 867.429
137.5 812.143
138.5 782.429
139.5 847.429
140.5 983.429
141.5 868
142.5 773.857
143.5 894.286
144.5 1067.14
145.5 889.571
146.5 888.286
147.5 1036.29
148.5 1045.29
149.5 1025.86
150.5 1038.86
151.5 1040.71
152.5 1018.86
153.5 990.714
154.5 1121.86
155.5 1131
156.5 1072.43
157.5 1107
158.5 1067
159.5 1065.43
160.5 1150.71
161.5 1076.86
162.5 1138.57
163.5 1099.43
164.5 1125.14
165.5 1144.29
166.5 972.571
167.5 969.429
168.5 1159.86
169.5 1203.14
170.5 1151
171.5 1729
172.5 3747.86
173.5 14721.6
174.5 28686.1
175.5 12742
176.5 2100.57
177.5 869.714
178.5 597.429
179.5 520.571
180.5 697.429
181.5 647.429
182.5 722
183.5 703.286
184.5 736.286
185.5 557.143
186.5 777.286
187.5 784.571
188.5 771
189.5 706.714
190.5 725.571
191.5 804.571
192.5 734.286
193.5 702.571
194.5 797.429
195.5 740.429
196.5 686
197.5 671.571
198.5 706.429
199.5 669
200.5 609.143
201.5 519.857
202.5 443.143
203.5 606.571
204.5 503.857
205.5 463
206.5 655.571
207.5 648.143
208.5 670.714
209.5 513.143
210.5 833.143
211.5 786.571
212.5 762.714
213.5 749.143
214.5 766.143
215.5 849.571
216.5 790.857
217.5 661
218.5 676.286
219.5 721.857
220.5 573.286
221.5 618.429
222.5 621.571
223.5 659.714
224.5 582.714
225.5 540.571
226.5 493
227.5 695.857
228.5 646.857
229.5 644
230.5 662
231.5 675.714
232.5 570.714
233.5 827.714
234.5 684.857
235.5 769.714
236.5 713.143
237.5 699
238.5 703.429
239.5 527
240.5 591.571
241.5 616.286
242.5 468.286
243.5 407.857
244.5 462.714
245.5 381.857
246.5 429.714
247.5 524.857
248.5 714.857
249.5 570.571
250.5 600.714
251.5 895
252.5 816.429
253.5 789.286
254.5 793.714
255.5 697.857
256.5 735.286
257.5 779.571
258.5 765.714
259.5 771.571
260.5 751.714
261.5 641.714
262.5 630.143
263.5 664.714
264.5 611
265.5 530.286
266.5 564.857
267.5 498.571
268.5 488.571
269.5 447
270.5 511.714
271.5 475.429
272.5 403.714
273.5 574.714
274.5 650.857
275.5 687.286
276.5 643.286
277.5 533
278.5 533.571
279.5 572.143
280.5 565.143
281.5 648.714
282.5 601.857
283.5 656.143
284.5 580.857
285.5 580.714
286.5 599.714
287.5 451
288.5 457.714
289.5 560
290.5 556.286
291.5 674
292.5 485.857
293.5 610
294.5 524.286
295.5 448.429
296.5 537.714
297.5 504
298.5 569.857
299.5 510.143
300.5 529.429
301.5 569.714
302.5 644.857
303.5 712.429
304.5 598.857
305.5 506
306.5 558.857
307.5 600.429
308.5 482.857
309.5 536.286
310.5 643.429
311.5 521.286
312.5 679.857
313.5 720
314.5 593
315.5 672.571
316.5 602.429
317.5 625.286
318.5 594
319.5 659.714
320.5 654.571
321.5 540.143
322.5 711.429
323.5 669.714
324.5 532.714
325.5 542.286
326.5 453
327.5 503.857
328.5 326.571
329.5 380.571
330.5 374.714
331.5 243
332.5 168.857
333.5 344
334.5 132
335.5 236
336.5 374.429
337.5 365.286
338.5 428
339.5 509
340.5 568.429
341.5 681.714
342.5 697.857
343.5 798.714
344.5 821.286
345.5 824.857
346.5 914.286
347.5 922.857
348.5 765.286
349.5 861.571
350.5 672.857
351.5 596.571
352.5 539.143
353.5 512.714
354.5 407
355.5 338.286
356.5 327.143
357.5 323.429
358.5 227.429
359.5 118.857
360.5 18
361.5 -70.1428
362.5 -90
363.5 -50.8571
364.5 -97.5714
365.5 -12.7143
366.5 -44.2857
367.5 58.1429
368.5 163.286
369.5 178.429
370.5 177.571
371.5 136.714
372.5 108.286
373.5 168.857
374.5 110.286
375.5 151
376.5 283.714
377.5 225.857
378.5 641.286
379.5 611.571
380.5 810.429
381.5 775
382.5 753.714
383.5 924.429
384.5 909.857
385.5 993.714
386.5 944.143
387.5 1015.57
388.5 956.429
389.5 896.857
390.5 926.286
391.5 804.143
392.5 668
393.5 466.714
394.5 268.714
395.5 163.143
396.5 77.1429
397.5 172.857
398.5 61.8572
399.5 6.7143
400.5 -21.1428
401.5 -35.7143
402.5 -27.8571
403.5 -150.571
404.5 59
405.5 -52.8571
406.5 -43.8571
407.5 -30.4286
408.5 119.571
409.5 181.571
410.5 258.571
411.5 196.714
412.5 354.571
413.5 204
414.5 318.286
415.5 244.714
416.5 251.286
417.5 203.714
418.5 251.286
419.5 257.571
420.5 258
421.5 277.143
422.5 258.286
423.5 264.571
424.5 195.429
425.5 182.857
426.5 299.429
427.5 401.143
428.5 296.857
429.5 214.571
430.5 365.571
431.5 315.857
432.5 367.429
433.5 336.286
434.5 330.857
435.5 330
436.5 250.286
437.5 281.714
438.5 267.857
439.5 316.429
440.5 205
441.5 259
442.5 308.143
443.5 292.429
444.5 323.571
445.5 236.857
446.5 371.571
447.5 309.429
448.5 294.714
449.5 270.143
450.5 221.714
451.5 262.286
452.5 266.286
453.5 216.714
454.5 220.857
455.5 307.714
456.5 277.286
457.5 296.143
458.5 302.571
459.5 369.857
460.5 358.429
461.5 388
462.5 395.714
463.5 652.143
464.5 1722.29
465.5 1905.57
466.5 915.571
467.5 311.714
468.5 193
469.5 280.429
470.5 265.857
471.5 183.571
472.5 266.429
473.5 359.571
474.5 339.857
475.5 446
476.5 364.286
477.5 313.429
478.5 276.857
479.5 458
480.5 412.714
481.5 370.429
482.5 316.429
483.5 296.571
484.5 358.286
485.5 267
486.5 390.571
487.5 315.143
488.5 178.857
489.5 209
490.5 177.571
491.5 137.571
492.5 137.143
493.5 132
494.5 139.714
495.5 112.143
496.5 78.7143
497.5 202.714
498.5 160
499.5 222
500.5 268.714
501.5 253.429
502.5 316.857
503.5 493.286
504.5 699.143
505.5 1107.43
506.5 2585.86
507.5 3680.29
508.5 5188.29
509.5 6214.86
510.5 7325.14
511.5 5764.71
512.5 2975.86
513.5 1174.71
514.5 477.429
515.5 292.857
516.5 149.143
517.5 148.429
518.5 135.714
519.5 193
520.5 55.8572
521.5 153.143
522.5 63.1429
523.5 60.7143
524.5 73.2857
525.5 113.571
526.5 168.714
527.5 136.571
528.5 136.286
529.5 219.571
530.5 256.714
531.5 271.857
532.5 276
533.5 246.429
534.5 161.714
535.5 135.286
536.5 193.571
537.5 168.286
538.5 167.429
539.5 161.857
540.5 184
541.5 92.1429
542.5 104.286
543.5 107.571
544.5 82.5714
545.5 175.714
546.5 84.2857
547.5 192.286
548.5 128.571
549.5 171.714
550.5 139.714
551.5 192
552.5 136.429
553.5 138.571
554.5 133.714
555.5 138.143
556.5 171.429
557.5 50
558.5 141.286
559.5 115.143
560.5 83.4286
561.5 138.714
562.5 157
563.5 137
564.5 103
565.5 138.143
566.5 106.143
567.5 191.571
568.5 164.714
569.5 238.714
570.5 121
571.5 252.143
572.5 182.571
573.5 315.714
574.5 236
575.5 252.429
576.5 243.857
577.5 136.429
578.5 223
579.5 121.571
580.5 111.714
581.5 91.5714
582.5 -93.2857
583.5 -455.571
584.5 -267
585.5 29.4286
586.5 47.5714
587.5 93.5714
588.5 129.571
589.5 83.4286
590.5 32.4286
591.5 86.1429
592.5 53.1429
593.5 43.4286
594.5 109.143
595.5 140.286
596.5 183
597.5 191.143
598.5 208.857
599.5 165.571
600.5 73.8572
601.5 223
602.5 127
603.5 183
604.5 169.286
605.5 118.143
606.5 180.571
607.5 97.5714
608.5 71.8572
609.5 158.143
610.5 72.5714
611.5 170.571
612.5 173.143
613.5 133.286
614.5 161.429
615.5 161.286
616.5 112.286
617.5 120.857
618.5 147
619.5 110.857
620.5 158.143
621.5 225.857
622.5 215.571
623.5 187
624.5 171.286
625.5 167
626.5 196.143
627.5 424.714
628.5 579.714
629.5 398.714
630.5 162.286
631.5 107.571
632.5 172.714
633.5 134.857
634.5 116.571
635.5 105.714
636.5 159
637.5 150.286
638.5 112
639.5 159.571
640.5 149.857
641.5 205.429
642.5 153.714
643.5 126.429
644.5 139.286
645.5 113.857
646.5 137
647.5 151.429
648.5 150.571
649.5 287.571
650.5 381
651.5 296.714
652.5 159.714
653.5 159.143
654.5 101.429
655.5 126.857
656.5 139
657.5 158.714
658.5 175
659.5 179.143
660.5 102.143
661.5 130.857
662.5 134.571
663.5 178
664.5 195.429
665.5 179.143
666.5 152.143
667.5 157.286
668.5 156.714
669.5 19.1429
670.5 136.429
671.5 116.857
672.5 67
673.5 89.8572
674.5 109.714
675.5 194.286
676.5 113
677.5 111.286
678.5 130.429
679.5 141.571
680.5 83.1429
681.5 121.429
682.5 102.571
683.5 168.143
684.5 198.857
685.5 154.857
686.5 158
687.5 62
688.5 182.571
689.5 123.571
690.5 112
691.5 126.571
692.5 163.857
693.5 163.571
694.5 128.571
695.5 171.143
696.5 182
697.5 141.429
698.5 149.429
699.5 112.714
700.5 120
701.5 74.4286
702.5 137.857
703.5 157.143
704.5 179.286
705.5 187.286
706.5 180.143
707.5 149
708.5 140.571
709.5 144.286
710.5 198.143
711.5 149.143
712.5 180
713.5 123
714.5 112.286
715.5 178
716.5 193.857
717.5 152.286
718.5 162.714
719.5 160.857
720.5 146.571
721.5 96
722.5 96.1429
723.5 89.7143
724.5 156.857
725.5 168.571
726.5 152.143
727.5 189.571
728.5 165
729.5 99.1429
730.5 65.8571
731.5 119.143
732.5 180.286
733.5 173.429
734.5 55.1429
735.5 109.714
736.5 176.429
737.5 116.143
738.5 160.143
739.5 206.714
740.5 91.1429
741.5 164.286
742.5 174.429
743.5 132.857
744.5 152
745.5 96.7143
746.5 163.571
747.5 131.286
748.5 144.857
749.5 129.286
750.5 158.714
751.5 103.143
752.5 172.143
753.5 148.857
754.5 105.857
755.5 152.143
756.5 130
757.5 140.571
758.5 187.857
759.5 389.857
760.5 606.857
761.5 763.857
762.5 405.143
763.5 185.143
764.5 53.7143
765.5 114.714
766.5 126.143
767.5 136.143
768.5 105.857
769.5 80.5714
770.5 108.857
771.5 151.143
772.5 159.143
773.5 181.143
774.5 108.714
775.5 54.2857
776.5 136
777.5 105
778.5 113
779.5 179.571
780.5 115.857
781.5 216
782.5 153.429
783.5 163.714
784.5 134.143
785.5 177.143
786.5 131.571
787.5 12.8572
788.5 -12.7143
789.5 63
790.5 113.143
791.5 105.143
792.5 159.143
793.5 206
794.5 54.7143
795.5 113.857
796.5 159.143
797.5 94
798.5 124.714
799.5 99.5714
800.5 113.429
801.5 155.286
802.5 73.7143
803.5 124.571
804.5 155.714
805.5 98.8572
806.5 72
807.5 96.1429
808.5 110.286
809.5 141.857
810.5 135.143
811.5 102.571
812.5 136.571
813.5 124
814.5 223.857
815.5 52
816.5 125.571
817.5 146.571
818.5 148
819.5 106.286
820.5 214.429
821.5 101.429
822.5 208.857
823.5 169
824.5 94.4286
825.5 105.571
826.5 182.286
827.5 153.714
828.5 207.143
829.5 134.143
830.5 78.1429
831.5 144.143
832.5 136.143
833.5 107.286
834.5 150.429
835.5 139.429
836.5 114
837.5 161.143
838.5 99.1429
839.5 105.857
840.5 145.143
841.5 149.143
842.5 88.5714
843.5 60
844.5 128.714
845.5 176.857
846.5 123.286
847.5 153.143
848.5 154
849.5 157.857
850.5 149.286
851.5 160.857
852.5 163.714
853.5 128.286
854.5 133.286
855.5 61.8572
856.5 119.286
857.5 174.429
858.5 163.286
859.5 180.143
860.5 183.857
861.5 217.429
862.5 173.286
863.5 151.286
864.5 93.5714
865.5 100.857
866.5 129.571
867.5 315.286
868.5 497.429
869.5 434
870.5 330.429
871.5 131.286
872.5 166.571
873.5 134.143
874.5 117.714
875.5 113.286
876.5 55.7143
877.5 161.429
878.5 126.429
879.5 183.857
880.5 100.857
881.5 61.7143
882.5 145.286
883.5 95
884.5 189.286
885.5 196.143
886.5 223.143
887.5 222.857
888.5 314.429
889.5 96.5714
890.5 227.286
891.5 214.286
892.5 258.857
893.5 304.857
894.5 195.143
895.5 221.571
896.5 215.857
897.5 126
898.5 198.143
899.5 161.143
900.5 219.286
901.5 196.857
902.5 296.143
903.5 254.286
904.5 186.429
905.5 120
906.5 80.5714
907.5 115.857
908.5 89.5714
909.5 68.1429
910.5 114.429
911.5 108.571
912.5 200
913.5 141.286
914.5 121.857
915.5 149.714
916.5 150.143
917.5 186.857
918.5 150.714
919.5 117.857
920.5 219.286
921.5 214.571
922.5 198.429
923.5 189
924.5 211.857
925.5 171.857
926.5 205.714
927.5 193.571
928.5 220.571
929.5 239.857
930.5 113.714
931.5 174.857
932.5 102.143
933.5 120.857
934.5 117.714
935.5 195.857
936.5 180.429
937.5 181.143
938.5 184.571
939.5 139.571
940.5 151
941.5 185.857
942.5 111.286
943.5 233.143
944.5 126.429
945.5 194.286
946.5 118
947.5 154.571
948.5 161.429
949.5 175.429
950.5 135.429
951.5 150.857
952.5 145.429
953.5 131.571
954.5 185.143
955.5 126
956.5 141.429
957.5 152.429
958.5 161.571
959.5 97.7143
960.5 164.286
961.5 120.714
962.5 144
963.5 106.286
964.5 139.857
965.5 160.143
966.5 191.571
967.5 103.857
968.5 183.571
969.5 167.143
970.5 144.143
971.5 115.714
972.5 102.429
973.5 151
974.5 102.143
975.5 100.714
976.5 96.4286
977.5 32
978.5 129.286
979.5 22.4286
980.5 169.143
981.5 94.7143
982.5 83
983.5 153.571
984.5 91.7143
985.5 112.429
986.5 117.143
987.5 120.571
988.5 200.571
989.5 142.286
990.5 168.857
991.5 147.286
992.5 157.571
993.5 199
994.5 157.286
995.5 178.571
996.5 284.286
997.5 382
998.5 347.286
999.5 221.286
1000.5 344.286
1001.5 452.857
1002.5 344.857
1003.5 188.143
1004.5 66.1429
1005.5 101
1006.5 101.143
1007.5 136.143
1008.5 96
1009.5 103.571
1010.5 50.5714
1011.5 100.714
1012.5 124.143
1013.5 95
1014.5 117.429
1015.5 151.714
1016.5 190.429
1017.5 177.143
1018.5 108.429
1019.5 116.429
1020.5 148
1021.5 133.857
1022.5 101.571
1023.5 248.857
1024.5 243.143
1025.5 224.429
1026.5 192.429
1027.5 164.286
1028.5 149.714
1029.5 147.714
1030.5 128.571
1031.5 103
1032.5 115.143
1033.5 91.2857
1034.5 115.286
1035.5 116.714
1036.5 59.5714
1037.5 73.4286
1038.5 108
1039.5 86.8571
1040.5 121.286
1041.5 86.2857
1042.5 85.5714
1043.5 124.857
1044.5 46.5714
1045.5 126.286
1046.5 120.714
1047.5 132.857
1048.5 136.571
1049.5 123.143
1050.5 146.429
1051.5 114.571
1052.5 83.1429
1053.5 107.857
1054.5 94.8571
1055.5 105.429
1056.5 59.1429
1057.5 21.5714
1058.5 97.2857
1059.5 81.8571
1060.5 91.4286
1061.5 159.143
1062.5 111.286
1063.5 87.8571
1064.5 79.1429
1065.5 132.714
1066.5 69
1067.5 88.5714
1068.5 63.4286
1069.5 105.143
1070.5 121.429
1071.5 146
1072.5 156
1073.5 311.571
1074.5 204.714
1075.5 163.143
1076.5 121.143
1077.5 59.7143
1078.5 48.5714
1079.5 94.1429
1080.5 104.143
1081.5 103
1082.5 78.2857
1083.5 79.7143
1084.5 107.571
1085.5 118.714
1086.5 43.7143
1087.5 89.4286
1088.5 95.5714
1089.5 67.5714
1090.5 118.857
1091.5 114.571
1092.5 88
1093.5 97.8571
1094.5 123.429
1095.5 83
1096.5 82.8571
1097.5 53.8571
1098.5 151.429
1099.5 127.714
1100.5 62.1429
1101.5 107
1102.5 95
1103.5 93.1429
1104.5 83.2857
1105.5 76.2857
1106.5 24.8571
1107.5 114.857
1108.5 96.7143
1109.5 91.5714
1110.5 127.714
1111.5 75.4286
1112.5 75.8571
1113.5 68
1114.5 56.2857
1115.5 109.714
1116.5 150
1117.5 75.4286
1118.5 60.2857
1119.5 128.429
1120.5 29
1121.5 113.429
1122.5 95.2857
1123.5 262.286
1124.5 606.714
1125.5 1365.86
1126.5 1220.29
1127.5 634.572
1128.5 101.571
1129.5 53.4286
1130.5 85.2857
1131.5 32.8571
1132.5 77.2857
1133.5 25.8571
1134.5 78.4286
1135.5 106.571
1136.5 83.8571
1137.5 134
1138.5 88.8571
1139.5 111.571
1140.5 123.857
1141.5 148.571
1142.5 118.429
1143.5 99.2857
1144.5 74.5714
1145.5 56.7143
1146.5 156.143
1147.5 61.2857
1148.5 86.1429
1149.5 83.5714
1150.5 60.8571
1151.5 67
1152.5 84.2857
1153.5 256.857
1154.5 730.714
1155.5 3066.57
1156.5 6302.71
1157.5 6482.86
1158.5 2664.29
1159.5 625
1160.5 104.571
1161.5 91.4286
1162.5 115.143
1163.5 75.2857
1164.5 92.1429
1165.5 49.1429
1166.5 86.1429
1167.5 62.8571
1168.5 34.1429
1169.5 36.7143
1170.5 80
1171.5 69.1429
1172.5 93
1173.5 109.714
1174.5 169
1175.5 97.1429
1176.5 78.1429
1177.5 67.1429
1178.5 106.429
1179.5 102.714
1180.5 137.857
1181.5 332.857
1182.5 561.286
1183.5 487.571
1184.5 202.429
1185.5 116.857
1186.5 77.5714
1187.5 60.1429
1188.5 64.2857
1189.5 86.1429
1190.5 31.5714
1191.5 60.7143
1192.5 80
1193.5 103.286
1194.5 120.714
1195.5 204.714
1196.5 311.857
1197.5 339.714
1198.5 220
1199.5 96.4286
1200.5 44.1429
1201.5 9.71429
1202.5 70.1429
1203.5 88.1429
1204.5 108.286
1205.5 34.2857
1206.5 90.4286
1207.5 108.143
1208.5 74
1209.5 63.1429
1210.5 59
1211.5 89.5714
1212.5 135.571
1213.5 129.286
1214.5 146.857
1215.5 140.143
1216.5 94.8571
1217.5 111.429
1218.5 109
1219.5 114
1220.5 55.4286
1221.5 62.7143
1222.5 59.5714
1223.5 95.4286
1224.5 72.8571
1225.5 60.5714
1226.5 84.1429
1227.5 62.1429
1228.5 87.8571
1229.5 41.2857
1230.5 60.5714
1231.5 52.8571
1232.5 71.7143
1233.5 58.7143
1234.5 87
1235.5 52.4286
1236.5 58.5714
1237.5 67.5714
1238.5 71
1239.5 61.8571
1240.5 92.1429
1241.5 86.4286
1242.5 45.4286
1243.5 26.1429
1244.5 90.5714
1245.5 67.1429
1246.5 69.5714
1247.5 100.571
1248.5 133.571
1249.5 159.143
1250.5 141
1251.5 165.286
1252.5 122.429
1253.5 73.7143
1254.5 92.1429
1255.5 101.286
1256.5 101
1257.5 142.571
1258.5 205
1259.5 473.714
1260.5 601.286
1261.5 483
1262.5 153
1263.5 147.429
1264.5 115.286
1265.5 89.1429
1266.5 75.1429
1267.5 56.8571
1268.5 91.5714
1269.5 131
1270.5 60.5714
1271.5 94
1272.5 75.2857
1273.5 80.2857
1274.5 45.8571
1275.5 88.5714
1276.5 82.4286
1277.5 81.8571
1278.5 97.5714
1279.5 78.7143
1280.5 46.4286
1281.5 44.4286
1282.5 68.1429
1283.5 68.5714
1284.5 68.5714
1285.5 40.5714
1286.5 86.7143
1287.5 80.2857
1288.5 27.5714
1289.5 84.2857
1290.5 44
1291.5 82
1292.5 63
1293.5 49.7143
1294.5 75.2857
1295.5 39.8571
1296.5 36.2857
1297.5 57.7143
1298.5 62.1429
1299.5 85.7143
1300.5 53
1301.5 79.7143
1302.5 37
1303.5 70.7143
1304.5 47.8571
1305.5 64.8571
1306.5 74.7143
1307.5 58
1308.5 101.429
1309.5 104.571
1310.5 84.2857
1311.5 103.571
1312.5 44.4286
1313.5 46.8571
1314.5 53.8571
1315.5 88.7143
1316.5 78
1317.5 116.286
1318.5 68.1429
1319.5 120.143
1320.5 83.2857
1321.5 82.1429
1322.5 81.7143
1323.5 54.7143
1324.5 65.2857
1325.5 27
1326.5 32.4286
1327.5 55.4286
1328.5 81.2857
1329.5 61.4286
1330.5 45
1331.5 72.4286
1332.5 53.4286
1333.5 42.5714
1334.5 62.1429
1335.5 48.1429
1336.5 84
1337.5 60.7143
1338.5 60
1339.5 103.143
1340.5 72
1341.5 93
1342.5 89.1429
1343.5 100.286
1344.5 80.1429
1345.5 43.1429
1346.5 30.5714
1347.5 84
1348.5 88.4286
1349.5 31.8571
1350.5 33.5714
1351.5 16.1429
1352.5 86.1429
1353.5 48
1354.5 72.8571
1355.5 73
1356.5 37.1429
1357.5 35.8571
1358.5 86.8571
1359.5 51.2857
1360.5 70
1361.5 95.5714
1362.5 40
1363.5 79.2857
1364.5 31.4286
1365.5 61.7143
1366.5 53
1367.5 90.7143
1368.5 85.1429
1369.5 79.2857
1370.5 59.8571
1371.5 39.2857
1372.5 84.1429
1373.5 65.1429
1374.5 49
1375.5 73.4286
1376.5 11.2857
1377.5 50.1429
1378.5 70.5714
1379.5 43.1429
1380.5 55.1429
1381.5 88.1429
1382.5 92.4286
1383.5 72.1429
1384.5 75
1385.5 68.7143
1386.5 96.8571
1387.5 90.8571
1388.5 72.4286
1389.5 90
1390.5 83.1429
1391.5 94.4286
1392.5 57.1429
1393.5 84.1429
1394.5 75.7143
1395.5 84.5714
1396.5 28.4286
1397.5 14.8571
1398.5 50.2857
1399.5 65.1429
1400.5 21.2857
1401.5 51.7143
1402.5 63
1403.5 81.1429
1404.5 60.8571
1405.5 69.2857
1406.5 23.4286
1407.5 92.8571
1408.5 67.8571
1409.5 71.5714
1410.5 75.1429
1411.5 85.4286
1412.5 93.4286
1413.5 82.7143
1414.5 63.8571
1415.5 71.2857
1416.5 69.1429
1417.5 142.429
1418.5 74.7143
1419.5 76.8571
1420.5 103.143
1421.5 60.4286
1422.5 65.7143
1423.5 69.5714
1424.5 65.1429
1425.5 72.7143
1426.5 68.7143
1427.5 109.429
1428.5 78.2857
1429.5 136.714
1430.5 74.4286
1431.5 114.143
1432.5 102.714
1433.5 224.857
1434.5 338.714
1435.5 236.286
1436.5 138.286
1437.5 86.8571
1438.5 84
1439.5 69.7143
1440.5 51.5714
1441.5 66.1429
1442.5 53.2857
1443.5 77.4286
1444.5 38.7143
1445.5 82.2857
1446.5 46
1447.5 80.5714
1448.5 69.7143
1449.5 93.2857
1450.5 81.4286
1451.5 86
1452.5 68
1453.5 66.7143
1454.5 65
1455.5 58.5714
1456.5 72.7143
