# EGG_ProjY_E2151.5(4.5)_B2135.5(2.5)_B2160.5(1.5)
# X axis : Energy (keV) [Y axis]
# Y axis : Counts/1 keV
# N Bins : 12000
# X Min : 0
# X Max : 12000
# X value at the center of the bins
0.5 0
1.5 0
2.5 0
3.5 0
4.5 0
5.5 103.625
6.5 90.375
7.5 142.5
8.5 133.5
9.5 109.75
10.5 69.5
11.5 118.75
12.5 158.75
13.5 206.5
14.5 278.125
15.5 337.875
16.5 411.125
17.5 679.625
18.5 885.25
19.5 1088.38
20.5 1322.38
21.5 1483.25
22.5 1905.12
23.5 2408.5
24.5 2833.62
25.5 2952.75
26.5 3303.12
27.5 3743.88
28.5 4186.5
29.5 4517.12
30.5 4936.5
31.5 5158
32.5 5718.12
33.5 5948.5
34.5 6088
35.5 6028.62
36.5 6309.88
37.5 6495.25
38.5 6753.12
39.5 6721.5
40.5 6736.88
41.5 7078
42.5 7435.75
43.5 7479.62
44.5 7079
45.5 7346.62
46.5 7237.88
47.5 7770.62
48.5 7741.38
49.5 7641.88
50.5 7616.62
51.5 7670
52.5 7942.5
53.5 8075.75
54.5 8005.88
55.5 8068.88
56.5 8340.75
57.5 9790.25
58.5 11837.9
59.5 12346.6
60.5 10291.5
61.5 8309.62
62.5 8048
63.5 7998.12
64.5 8166.25
65.5 8621.38
66.5 9445.75
67.5 10582.2
68.5 9631
69.5 9332.75
70.5 9041.5
71.5 8875.12
72.5 9401.25
73.5 10853
74.5 14984.4
75.5 16995
76.5 18182.4
77.5 20389.4
78.5 12631.9
79.5 8833.12
80.5 8478.38
81.5 8401
82.5 8044.25
83.5 8187.25
84.5 8545
85.5 9234.5
86.5 11632.4
87.5 13282.6
88.5 11010.1
89.5 10260.4
90.5 9639.88
91.5 8934
92.5 8521.88
93.5 8674.5
94.5 8576.75
95.5 8872.38
96.5 9106.12
97.5 8931
98.5 8898.88
99.5 9118.88
100.5 9162.75
101.5 9030
102.5 9301.5
103.5 9422.88
104.5 9538.25
105.5 9572
106.5 9550.5
107.5 9927.38
108.5 9901.25
109.5 9816.5
110.5 9961.12
111.5 9937.62
112.5 10033
113.5 10017.2
114.5 10035.4
115.5 10220.5
116.5 10482.2
117.5 10555.9
118.5 10724.9
119.5 10341.1
120.5 10637.2
121.5 10908.8
122.5 10815.2
123.5 10950.5
124.5 11408.5
125.5 10953.9
126.5 10938.1
127.5 11032.1
128.5 11138.8
129.5 11390.1
130.5 11354.2
131.5 11440.9
132.5 11317.5
133.5 11150.5
134.5 11584.6
135.5 11795.4
136.5 11536
137.5 11284.6
138.5 11311.5
139.5 11935.1
140.5 11905.1
141.5 11983.8
142.5 12165.5
143.5 11911.5
144.5 12211.8
145.5 12231.5
146.5 12357.9
147.5 11995.4
148.5 12493.8
149.5 12706.6
150.5 12515
151.5 12615.9
152.5 12937.9
153.5 12446.9
154.5 12728
155.5 12891
156.5 13046.8
157.5 13545.1
158.5 13624.2
159.5 13700.6
160.5 13759.4
161.5 13520.4
162.5 13792.1
163.5 13521.9
164.5 13330.5
165.5 13616.5
166.5 13502.8
167.5 13841.5
168.5 13411.4
169.5 13761.4
170.5 13656.9
171.5 13431.2
172.5 13440.8
173.5 14295.5
174.5 14494.4
175.5 14122.5
176.5 13773.1
177.5 13612.1
178.5 13355.1
179.5 13354.4
180.5 13916.2
181.5 14356.2
182.5 14583.1
183.5 13413.8
184.5 13435.9
185.5 13277.8
186.5 13407.8
187.5 13169.1
188.5 12941
189.5 13148
190.5 13006.9
191.5 13201.9
192.5 13000.1
193.5 13252.2
194.5 12903.4
195.5 13018.6
196.5 13183.4
197.5 13144.9
198.5 13343.9
199.5 13623.6
200.5 14521.6
201.5 17985.2
202.5 18425.9
203.5 14795.1
204.5 13451.6
205.5 13387.4
206.5 13288.9
207.5 13388.6
208.5 13825.8
209.5 14511.4
210.5 17115
211.5 17010.5
212.5 15153.8
213.5 14476.4
214.5 14238.8
215.5 14133.2
216.5 14434.6
217.5 14417.8
218.5 14172.9
219.5 14180.4
220.5 13946
221.5 14146.6
222.5 14570.2
223.5 14416.1
224.5 14204.4
225.5 14416
226.5 14431.5
227.5 14753.6
228.5 14168.5
229.5 14185.5
230.5 14151.6
231.5 14346.6
232.5 14236.2
233.5 14337.1
234.5 14115.4
235.5 14225.9
236.5 14375.5
237.5 14240.9
238.5 14051.9
239.5 14430.2
240.5 14038.2
241.5 14422.6
242.5 14546.8
243.5 14231.8
244.5 14027.1
245.5 13983.8
246.5 13668.5
247.5 13510.9
248.5 13357.6
249.5 13230.9
250.5 13001.9
251.5 12396.4
252.5 12831
253.5 12690
254.5 12302.2
255.5 11886.6
256.5 12122.1
257.5 11954.1
258.5 11991.8
259.5 11896.9
260.5 11878.5
261.5 11857.8
262.5 11774.1
263.5 11808.9
264.5 11382.4
265.5 11427.5
266.5 11387
267.5 11435.9
268.5 10837.8
269.5 10803
270.5 10898.4
271.5 10884.1
272.5 10918.8
273.5 10957.8
274.5 11080.9
275.5 10509.5
276.5 11098.8
277.5 10769.2
278.5 11024.1
279.5 10747.5
280.5 11022
281.5 11102.9
282.5 10923.2
283.5 10748.5
284.5 10683.4
285.5 10489.4
286.5 10357.9
287.5 10318.1
288.5 10549.6
289.5 10389.2
290.5 9980.38
291.5 10045.1
292.5 10047.4
293.5 9985.88
294.5 9794.62
295.5 9908.75
296.5 9841.25
297.5 10643.9
298.5 13531.5
299.5 14645.8
300.5 11805
301.5 9795.12
302.5 9631.12
303.5 9517.25
304.5 9582.75
305.5 9585
306.5 9550.75
307.5 9749.12
308.5 9490.62
309.5 9294.75
310.5 9368.38
311.5 9270.62
312.5 9371.75
313.5 9304.25
314.5 9478.5
315.5 9705.38
316.5 9642.75
317.5 9585.25
318.5 9593.75
319.5 9418.62
320.5 9495.25
321.5 9438.25
322.5 9260.12
323.5 9074.75
324.5 9207.88
325.5 9022.75
326.5 9176.88
327.5 9024
328.5 8812.5
329.5 9300.62
330.5 8925.88
331.5 8640.38
332.5 8887
333.5 9014.12
334.5 8816.88
335.5 8943.38
336.5 8776.38
337.5 8913.12
338.5 8575.88
339.5 9069.12
340.5 8534
341.5 8919.5
342.5 8546.88
343.5 8526.88
344.5 8636.12
345.5 8600.38
346.5 8497
347.5 8580.12
348.5 8354.12
349.5 8551.12
350.5 8527.12
351.5 8385.75
352.5 8275.5
353.5 8433.5
354.5 8441.75
355.5 8237.12
356.5 7962.5
357.5 7881
358.5 7687.5
359.5 7791.62
360.5 8010.62
361.5 8109
362.5 8474.25
363.5 8421.12
364.5 8669.5
365.5 9099
366.5 12985.9
367.5 29953.4
368.5 41513.5
369.5 23452.5
370.5 10694.9
371.5 8311.88
372.5 7813.5
373.5 7684.88
374.5 7990.12
375.5 7964
376.5 7820.5
377.5 7833.38
378.5 7836.38
379.5 7660.12
380.5 7567.25
381.5 7123.38
382.5 7048.75
383.5 7042.88
384.5 7059.62
385.5 7036.5
386.5 7146
387.5 7265.38
388.5 7452.75
389.5 7333.12
390.5 7348.38
391.5 7263.75
392.5 7176.25
393.5 7259.25
394.5 7304.38
395.5 7155.38
396.5 7264.12
397.5 7458.5
398.5 7471.25
399.5 7519
400.5 8697.12
401.5 16385.4
402.5 69300
403.5 224830
404.5 238248
405.5 79774.6
406.5 17566.6
407.5 7515
408.5 6178.5
409.5 6070.62
410.5 5802.75
411.5 5703.38
412.5 5612
413.5 5678.25
414.5 5794.88
415.5 5664.12
416.5 5636.5
417.5 5675.62
418.5 5620.25
419.5 5789.62
420.5 5773.5
421.5 5691.25
422.5 5793.62
423.5 5692.88
424.5 5804.88
425.5 5655.25
426.5 5683.5
427.5 5702.62
428.5 5674.38
429.5 5297.12
430.5 5503.75
431.5 5540.38
432.5 5668.75
433.5 5616.12
434.5 5683.75
435.5 5568.5
436.5 5478.62
437.5 5431.62
438.5 5484.38
439.5 5411
440.5 5328.25
441.5 5605.25
442.5 5467.5
443.5 5577.88
444.5 5771.62
445.5 5579.12
446.5 5447.62
447.5 5137.62
448.5 5501.25
449.5 5483
450.5 5265.5
451.5 5299.88
452.5 5416.75
453.5 5257.12
454.5 5233.88
455.5 5195.5
456.5 5624.5
457.5 5330.5
458.5 5309.62
459.5 5266.75
460.5 5386
461.5 5449.75
462.5 5497.38
463.5 5464.12
464.5 5707.62
465.5 5557.25
466.5 5616.75
467.5 5789.12
468.5 5818.12
469.5 5887
470.5 5495.12
471.5 5413.25
472.5 5945.38
473.5 5958.62
474.5 6290.75
475.5 6270.38
476.5 6107.12
477.5 5871.88
478.5 5851.5
479.5 5726.62
480.5 5548.12
481.5 5647.62
482.5 5759.88
483.5 6452.88
484.5 5970
485.5 5334.5
486.5 5117.5
487.5 4977.75
488.5 5155.25
489.5 5217.25
490.5 5064
491.5 4852.25
492.5 4972.38
493.5 4985.75
494.5 5090.62
495.5 5076.62
496.5 5176.25
497.5 4957.38
498.5 4965
499.5 5171.5
500.5 5442.62
501.5 5208.12
502.5 5255
503.5 5202.62
504.5 5229.12
505.5 5669.38
506.5 6909.12
507.5 10280.2
508.5 17399.9
509.5 31436.5
510.5 43892
511.5 42345.9
512.5 28596.2
513.5 14793.2
514.5 8258.62
515.5 5658.75
516.5 4759
517.5 4705.75
518.5 4647.75
519.5 4588.12
520.5 4352.5
521.5 4336.62
522.5 4267.25
523.5 4458.38
524.5 4505.62
525.5 4564.88
526.5 4433.25
527.5 4293.38
528.5 4379.25
529.5 4438.5
530.5 4400.88
531.5 4502.62
532.5 4471.38
533.5 4462
534.5 4396.75
535.5 4355.75
536.5 4407.38
537.5 4265.88
538.5 4467
539.5 4253.12
540.5 4354.12
541.5 4340.12
542.5 4399.25
543.5 4192.5
544.5 4429.38
545.5 4230.62
546.5 4195.38
547.5 4372.75
548.5 4259.75
549.5 4207.25
550.5 4002.25
551.5 4117.75
552.5 4180.5
553.5 4299.38
554.5 4109
555.5 4018.12
556.5 4083.88
557.5 4022.5
558.5 3937
559.5 4057.75
560.5 4200.38
561.5 4084
562.5 4152.62
563.5 4179.75
564.5 4256.75
565.5 4257.88
566.5 4387
567.5 4534
568.5 4435.75
569.5 4525.75
570.5 4370.12
571.5 4397.12
572.5 4379.5
573.5 4313.25
574.5 4307.62
575.5 4388
576.5 4135.38
577.5 4094
578.5 4261.88
579.5 4144.5
580.5 4047.5
581.5 4050.88
582.5 4244.25
583.5 4186
584.5 4073.38
585.5 3936.75
586.5 3921.38
587.5 3985.75
588.5 4053.5
589.5 4160.38
590.5 4120
591.5 4064.88
592.5 4147.75
593.5 4213.88
594.5 4319.5
595.5 4099.88
596.5 4077.62
597.5 4106.62
598.5 4552.25
599.5 4528.75
600.5 4259
601.5 4080.38
602.5 3980.25
603.5 4409.62
604.5 6179.38
605.5 9203.38
606.5 8145
607.5 5263
608.5 4192.25
609.5 4009.75
610.5 3955.62
611.5 4126.75
612.5 4108
613.5 4074.12
614.5 4034.38
615.5 3943.25
616.5 3912.88
617.5 3948.12
618.5 3941.5
619.5 4313
620.5 4047.38
621.5 4268.75
622.5 4126.88
623.5 4061.62
624.5 3961.12
625.5 3960
626.5 4039.12
627.5 4113.88
628.5 4101.75
629.5 3981.12
630.5 4032.38
631.5 3895.25
632.5 3921.62
633.5 3966.62
634.5 4028.38
635.5 4013.25
636.5 3991.5
637.5 3916.88
638.5 3762.38
639.5 3864.75
640.5 3947.12
641.5 4004.88
642.5 3986.88
643.5 4089.25
644.5 4416.25
645.5 6029.38
646.5 7319.62
647.5 6237.75
648.5 4998.75
649.5 5083.75
650.5 5896.88
651.5 5325.75
652.5 4382.25
653.5 4036.88
654.5 4048.75
655.5 4137.12
656.5 3983.75
657.5 4066.5
658.5 3935.12
659.5 3965.62
660.5 3903.38
661.5 3830.5
662.5 4045
663.5 4084
664.5 3917.12
665.5 4024.5
666.5 4062.5
667.5 4533
668.5 4467.5
669.5 4317
670.5 4199.38
671.5 3767
672.5 4087.88
673.5 4070
674.5 3862.38
675.5 4008.38
676.5 3993.5
677.5 4109.62
678.5 4093.38
679.5 3987
680.5 4075
681.5 4538.12
682.5 4694.38
683.5 4365.12
684.5 4234.25
685.5 4490.62
686.5 5679.12
687.5 5568.88
688.5 4583.5
689.5 4159.38
690.5 3951.88
691.5 4105
692.5 3988.12
693.5 4007
694.5 4183.5
695.5 4035.38
696.5 4166.62
697.5 4409.75
698.5 4134
699.5 3922.25
700.5 3924.88
701.5 4906.25
702.5 6814.25
703.5 6459.25
704.5 4876.12
705.5 4034.75
706.5 3796.88
707.5 4020.12
708.5 3706.12
709.5 3712.12
710.5 3904.75
711.5 3763.38
712.5 3800.38
713.5 3793
714.5 3847.12
715.5 3901.38
716.5 3690.25
717.5 3865.25
718.5 3967.88
719.5 3798
720.5 3961.12
721.5 4103.75
722.5 4128.75
723.5 4175.75
724.5 3940
725.5 3860.38
726.5 3898.62
727.5 3936.5
728.5 3949.5
729.5 4024.75
730.5 4022.88
731.5 3946.38
732.5 4034.75
733.5 4053
734.5 3872.62
735.5 4031.88
736.5 4441.75
737.5 5790.12
738.5 5683.62
739.5 4367.88
740.5 3887.25
741.5 3920.38
742.5 3835.38
743.5 3877.75
744.5 3946.75
745.5 3881.5
746.5 3656.88
747.5 3874.12
748.5 3903.38
749.5 3900.25
750.5 4004.75
751.5 3894.75
752.5 3818.38
753.5 3950.88
754.5 3979.75
755.5 3759.5
756.5 3955
757.5 3896.62
758.5 3818.62
759.5 4178.62
760.5 4110.12
761.5 4471.62
762.5 4041.88
763.5 3958.12
764.5 3908.38
765.5 3990.88
766.5 3968.25
767.5 4012.12
768.5 3912
769.5 3780.62
770.5 3889.38
771.5 4174
772.5 3950.88
773.5 3838.25
774.5 3929.12
775.5 3961.62
776.5 4109
777.5 4089.12
778.5 3983.5
779.5 4032.38
780.5 3950.88
781.5 4032.12
782.5 4020.62
783.5 3925.38
784.5 3768.5
785.5 3970.5
786.5 4042.25
787.5 4106.62
788.5 4114
789.5 4105.12
790.5 3965.12
791.5 4222.75
792.5 4246.5
793.5 4249
794.5 4088.5
795.5 4468.75
796.5 4467.12
797.5 4407
798.5 4067.62
799.5 4109.25
800.5 3938.12
801.5 3983
802.5 4014.62
803.5 3995.62
804.5 4132.12
805.5 4177.25
806.5 4234
807.5 4104.88
808.5 4195.38
809.5 3930.5
810.5 3940
811.5 4143.38
812.5 3939.38
813.5 4226.12
814.5 4562.38
815.5 4928.5
816.5 4602.62
817.5 4214.5
818.5 4092.38
819.5 3992.62
820.5 3969
821.5 4245
822.5 4110.25
823.5 4340.38
824.5 4239.38
825.5 4113.62
826.5 4125.75
827.5 4110.5
828.5 4085.12
829.5 4133.62
830.5 4339.38
831.5 4131.25
832.5 4337.88
833.5 4249.25
834.5 4077.12
835.5 4266.38
836.5 4212.5
837.5 4164.88
838.5 4287.5
839.5 4132.38
840.5 4149.38
841.5 4231.62
842.5 4229.12
843.5 4379.25
844.5 4344.88
845.5 4511
846.5 4620.5
847.5 4311.5
848.5 4339.38
849.5 4350.62
850.5 4331.5
851.5 4429.38
852.5 4516.25
853.5 4530.38
854.5 4271
855.5 4285
856.5 4313.38
857.5 4493.88
858.5 4288.38
859.5 4465.62
860.5 4556
861.5 4491.88
862.5 4102.88
863.5 4410.75
864.5 4164
865.5 4345
866.5 4105.12
867.5 4375.25
868.5 4447.5
869.5 4547.62
870.5 4912.12
871.5 5639.38
872.5 5985.5
873.5 5270.88
874.5 4933.12
875.5 4935.62
876.5 5248.25
877.5 5015.25
878.5 4604.5
879.5 4369.75
880.5 4501.25
881.5 4672
882.5 4562.88
883.5 4630
884.5 4939.38
885.5 5310.25
886.5 6951
887.5 8373.75
888.5 7184.75
889.5 5293.38
890.5 4611.12
891.5 4624.38
892.5 4460.62
893.5 4465.75
894.5 4668.5
895.5 4616.12
896.5 4611.25
897.5 4726.38
898.5 4815.62
899.5 4647.5
900.5 5006
901.5 4863
902.5 4878.5
903.5 4872.12
904.5 4794.5
905.5 4946.75
906.5 4823.38
907.5 4906.75
908.5 4904.12
909.5 4982
910.5 4719.38
911.5 5037.88
912.5 4980.62
913.5 4996.12
914.5 5366.88
915.5 5131.5
916.5 5326
917.5 5164.62
918.5 5200.75
919.5 5244.75
920.5 5299.25
921.5 5413.62
922.5 5367
923.5 5435
924.5 5434.88
925.5 5495
926.5 5648
927.5 5581.5
928.5 5636.25
929.5 5738.12
930.5 5685.12
931.5 5738.62
932.5 5772.75
933.5 5825.62
934.5 5902.38
935.5 5842
936.5 5849
937.5 6179.62
938.5 6000.75
939.5 5986.5
940.5 5941
941.5 6127.88
942.5 5932.12
943.5 5951.88
944.5 5812.5
945.5 5699.88
946.5 5506
947.5 5250.75
948.5 5158.38
949.5 4890.62
950.5 4897.75
951.5 4720.25
952.5 4651.5
953.5 4430.5
954.5 4451.38
955.5 4361.62
956.5 4217.5
957.5 4335.88
958.5 4219.38
959.5 4207.12
960.5 4251.25
961.5 4210.12
962.5 4118.25
963.5 4185.88
964.5 4064.5
965.5 4140.5
966.5 4188
967.5 4072.25
968.5 4072.5
969.5 3811
970.5 3999.62
971.5 3998
972.5 4067.88
973.5 4335
974.5 4441.12
975.5 4309.5
976.5 3974.25
977.5 3803
978.5 3830.88
979.5 3797.5
980.5 3864.38
981.5 3750.62
982.5 3848
983.5 3812.38
984.5 3830.25
985.5 3715.62
986.5 3781
987.5 3852.75
988.5 3858.12
989.5 3699.62
990.5 3892.12
991.5 3744.25
992.5 3582.5
993.5 3666
994.5 3651.62
995.5 3777
996.5 3795.88
997.5 3957.62
998.5 3803.12
999.5 3819.88
1000.5 3983.12
1001.5 4747.88
1002.5 4431.88
1003.5 3918.75
1004.5 3785.62
1005.5 4337.75
1006.5 5769
1007.5 7097.75
1008.5 5869.25
1009.5 4090.5
1010.5 3537.88
1011.5 3485.88
1012.5 3413.5
1013.5 3313.75
1014.5 3491.75
1015.5 3513.25
1016.5 3763
1017.5 3527.5
1018.5 3329.75
1019.5 3373.62
1020.5 3430.75
1021.5 3201.88
1022.5 3538.62
1023.5 3697.5
1024.5 3986.5
1025.5 3500.12
1026.5 3309.88
1027.5 3219.75
1028.5 3201.38
1029.5 3115.12
1030.5 3186.25
1031.5 3019
1032.5 3069.38
1033.5 2995.38
1034.5 2982.38
1035.5 3128.62
1036.5 2908.88
1037.5 3094.5
1038.5 3099.38
1039.5 3117.25
1040.5 2833.75
1041.5 2995.25
1042.5 3014.38
1043.5 2754.25
1044.5 2872
1045.5 2936.5
1046.5 3119.38
1047.5 3827.75
1048.5 7583
1049.5 16792.5
1050.5 27226
1051.5 20944.1
1052.5 8203.62
1053.5 3693.88
1054.5 2881.25
1055.5 2577.62
1056.5 2704.62
1057.5 2639.5
1058.5 2689.25
1059.5 2621.88
1060.5 2622.12
1061.5 2580.88
1062.5 2532
1063.5 2764.38
1064.5 2787.12
1065.5 2810
1066.5 2702.12
1067.5 2501.62
1068.5 2523
1069.5 2309.75
1070.5 2552.25
1071.5 2390.25
1072.5 2597.5
1073.5 2819.12
1074.5 2890.25
1075.5 2620.88
1076.5 2569.75
1077.5 2518.12
1078.5 2488.5
1079.5 2359.75
1080.5 2345
1081.5 2416.88
1082.5 2365.62
1083.5 2277
1084.5 2385.62
1085.5 2333.88
1086.5 2239.38
1087.5 2491.5
1088.5 2837
1089.5 4146.88
1090.5 6587.25
1091.5 6947.25
1092.5 4595.75
1093.5 3024.62
1094.5 2508
1095.5 2432.12
1096.5 2263.88
1097.5 2177.62
1098.5 2381.75
1099.5 2398.5
1100.5 2329.25
1101.5 2347.5
1102.5 2280.62
1103.5 2217.5
1104.5 2275.88
1105.5 2212.12
1106.5 2165.12
1107.5 2073.38
1108.5 2265.88
1109.5 2174.75
1110.5 2185
1111.5 2220.62
1112.5 2292.75
1113.5 2429.88
1114.5 2380
1115.5 2348.38
1116.5 2179.25
1117.5 2176.12
1118.5 2127.5
1119.5 2292.75
1120.5 2153.62
1121.5 2253.5
1122.5 2245.75
1123.5 2547.88
1124.5 3761
1125.5 5021.38
1126.5 6375.75
1127.5 3859.88
1128.5 2858.88
1129.5 2300.5
1130.5 2372.25
1131.5 2207.38
1132.5 2171.25
1133.5 2266
1134.5 2168.38
1135.5 2221.75
1136.5 2188.5
1137.5 2247.38
1138.5 2292.12
1139.5 2285.38
1140.5 2158.25
1141.5 2351.88
1142.5 2554.88
1143.5 2509.38
1144.5 2285.38
1145.5 2390.62
1146.5 2515.62
1147.5 2619
1148.5 2455.75
1149.5 2434.38
1150.5 2427.75
1151.5 2707
1152.5 3863.5
1153.5 10258
1154.5 40584.8
1155.5 141148
1156.5 309940
1157.5 317927
1158.5 134368
1159.5 28889.9
1160.5 6577.38
1161.5 2650.5
1162.5 1867.38
1163.5 1691
1164.5 1650.88
1165.5 1619.12
1166.5 1666.25
1167.5 1393.5
1168.5 1512.5
1169.5 1456.5
1170.5 1661
1171.5 2002.62
1172.5 1678.25
1173.5 1555.62
1174.5 1422.25
1175.5 1406.38
1176.5 1415.38
1177.5 1404.88
1178.5 1506
1179.5 1416
1180.5 1587
1181.5 1833.75
1182.5 2278.88
1183.5 2139.5
1184.5 1680.88
1185.5 1522.88
1186.5 1619.25
1187.5 1472
1188.5 1485.75
1189.5 1514.5
1190.5 1682
1191.5 1835.75
1192.5 1971.75
1193.5 2105.75
1194.5 1964.5
1195.5 1547.62
1196.5 1553.62
1197.5 1467.38
1198.5 1380.5
1199.5 1324.38
1200.5 1359.38
1201.5 1265
1202.5 1300.62
1203.5 1327
1204.5 1388.25
1205.5 1404.38
1206.5 1477.38
1207.5 1443.25
1208.5 1460.75
1209.5 1343
1210.5 1378.75
1211.5 1352.75
1212.5 1584.25
1213.5 2390.25
1214.5 2802
1215.5 2367.25
1216.5 1867.88
1217.5 2135.88
1218.5 2811.25
1219.5 2512.75
1220.5 1717.38
1221.5 1525.75
1222.5 1457.38
1223.5 1441
1224.5 1561.88
1225.5 1620.88
1226.5 1685.12
1227.5 1583
1228.5 1649.5
1229.5 1893.62
1230.5 1676
1231.5 1491.38
1232.5 1462.5
1233.5 1431.88
1234.5 1346.88
1235.5 1384.88
1236.5 1457.38
1237.5 1493
1238.5 1342.38
1239.5 1317.62
1240.5 1362.75
1241.5 1454.38
1242.5 1701.5
1243.5 2236
1244.5 3013.5
1245.5 2729.88
1246.5 1848.5
1247.5 1520.62
1248.5 1442.12
1249.5 1339.38
1250.5 1294.5
1251.5 1319.38
1252.5 1417
1253.5 1345.88
1254.5 1431.75
1255.5 1603.38
1256.5 1717.88
1257.5 1499.5
1258.5 1421.75
1259.5 1228.38
1260.5 1322.12
1261.5 1446.38
1262.5 1482.75
1263.5 1587.25
1264.5 2634.38
1265.5 5411.12
1266.5 8430.12
1267.5 6842.5
1268.5 3242.38
1269.5 1820
1270.5 1426.75
1271.5 1433.62
1272.5 1431.88
1273.5 1709
1274.5 2344
1275.5 3910.5
1276.5 4810.25
1277.5 3506.12
1278.5 2096.5
1279.5 1528.38
1280.5 1463.62
1281.5 1429.75
1282.5 1566.38
1283.5 1569.62
1284.5 1456.75
1285.5 1295.62
1286.5 1369.25
1287.5 1307.75
1288.5 1374.12
1289.5 1321
1290.5 1413.25
1291.5 1425.5
1292.5 1607.25
1293.5 1525.38
1294.5 1501.5
1295.5 1476.5
1296.5 1385.75
1297.5 1392.25
1298.5 1315.12
1299.5 1398
1300.5 1354.38
1301.5 1445.75
1302.5 1470.62
1303.5 1324.38
1304.5 1250.75
1305.5 1404.62
1306.5 1371.25
1307.5 1430.38
1308.5 1293.62
1309.5 1321
1310.5 1226.88
1311.5 1337.62
1312.5 1617.88
1313.5 2518.25
1314.5 3414
1315.5 3042.75
1316.5 2035.75
1317.5 1588.62
1318.5 1473.25
1319.5 1379.12
1320.5 1350.12
1321.5 1414.75
1322.5 1507.25
1323.5 1467.25
1324.5 1482.25
1325.5 1313.5
1326.5 1331.5
1327.5 1389.62
1328.5 1297.88
1329.5 1504.88
1330.5 1638.25
1331.5 1638.25
1332.5 1511.75
1333.5 1393.62
1334.5 1388.88
1335.5 1450
1336.5 1358.62
1337.5 1302.75
1338.5 1456.62
1339.5 1330.5
1340.5 1600
1341.5 1741.5
1342.5 2281.12
1343.5 2108.75
1344.5 1733.62
1345.5 1497.5
1346.5 1575.5
1347.5 1617
1348.5 1549.5
1349.5 1338.75
1350.5 1411.25
1351.5 1526.75
1352.5 1509.12
1353.5 1551.75
1354.5 1500.25
1355.5 1415.38
1356.5 1369.25
1357.5 1404.38
1358.5 1388
1359.5 1321.25
1360.5 1435
1361.5 1478.12
1362.5 1451.38
1363.5 1472.75
1364.5 1428.62
1365.5 1368.5
1366.5 1380.75
1367.5 1457.88
1368.5 1404.5
1369.5 1482.88
1370.5 1392.88
1371.5 1572.38
1372.5 1653.75
1373.5 1573
1374.5 1541.75
1375.5 1678.25
1376.5 1641.88
1377.5 1582.62
1378.5 1373.5
1379.5 1409
1380.5 1387.25
1381.5 1359
1382.5 1458.5
1383.5 1544.75
1384.5 1521.88
1385.5 1482.38
1386.5 1488.12
1387.5 1501.88
1388.5 1645.5
1389.5 1479
1390.5 1446
1391.5 1222.75
1392.5 1273.62
1393.5 1329.5
1394.5 1312.62
1395.5 1395.75
1396.5 1362
1397.5 1430.25
1398.5 1310.12
1399.5 1394.75
1400.5 1358.75
1401.5 1298.12
1402.5 1308.62
1403.5 1305.38
1404.5 1384.38
1405.5 1388.5
1406.5 1380.25
1407.5 1463.25
1408.5 1429.25
1409.5 1422.75
1410.5 1335.88
1411.5 1431.25
1412.5 1542.5
1413.5 1629
1414.5 1629.75
1415.5 1893.62
1416.5 2071.5
1417.5 2082.5
1418.5 1821.38
1419.5 1754.38
1420.5 1756.25
1421.5 1480.12
1422.5 1258.5
1423.5 1285
1424.5 1270
1425.5 1314.75
1426.5 1384.88
1427.5 1702.25
1428.5 1843.12
1429.5 1638.62
1430.5 1396.12
1431.5 1293
1432.5 1237.12
1433.5 1225
1434.5 1367.12
1435.5 1286
1436.5 1257.12
1437.5 1315.38
1438.5 1312.75
1439.5 1401
1440.5 1419.62
1441.5 1399.75
1442.5 1447.5
1443.5 1318.38
1444.5 1416
