# EGG_ProjY_E2200.5(4.5)_B2172.5(2.5)_B2207.5(1.5)
# X axis : Energy (keV) [Y axis]
# Y axis : Counts/1 keV
# N Bins : 12000
# X Min : 0
# X Max : 12000
# X value at the center of the bins
0.5 0
1.5 0
2.5 0
3.5 0
4.5 0
5.5 102.875
6.5 51.625
7.5 61.875
8.5 95.75
9.5 73.25
10.5 17.375
11.5 29.875
12.5 38.75
13.5 66.25
14.5 131.125
15.5 153.125
16.5 130.125
17.5 168.75
18.5 173.125
19.5 288.625
20.5 390.875
21.5 391.75
22.5 382.875
23.5 505.375
24.5 709.75
25.5 794.25
26.5 784.625
27.5 871.875
28.5 839.5
29.5 1006.88
30.5 854.25
31.5 1257.38
32.5 1389.88
33.5 1256.88
34.5 1533.25
35.5 1295.75
36.5 1595
37.5 1550.12
38.5 1655.12
39.5 1719.88
40.5 1548.88
41.5 1834.5
42.5 1979.62
43.5 2111.38
44.5 1689.62
45.5 1697.12
46.5 1649.75
47.5 1591.5
48.5 1613.38
49.5 1658.75
50.5 1655.5
51.5 1429.25
52.5 1759.62
53.5 1799.88
54.5 1855.88
55.5 1705.12
56.5 1973.38
57.5 2224.62
58.5 2750.5
59.5 2844.88
60.5 2393.62
61.5 2027.25
62.5 1748.12
63.5 1915
64.5 1953
65.5 1959.75
66.5 2159.62
67.5 2085.25
68.5 2151.12
69.5 1929
70.5 2150.12
71.5 1896.62
72.5 2030.75
73.5 2124.62
74.5 3258.25
75.5 3770.12
76.5 4168.25
77.5 4920.5
78.5 3223.75
79.5 2387.62
80.5 2197.25
81.5 1955.75
82.5 1729
83.5 1876.12
84.5 2001.5
85.5 2227.25
86.5 2756.62
87.5 3031.5
88.5 2345
89.5 1956.12
90.5 2328
91.5 2070.88
92.5 1980.5
93.5 1794.75
94.5 1847.88
95.5 1830.12
96.5 2093.12
97.5 1984.12
98.5 2087
99.5 2049.75
100.5 2054.25
101.5 2191
102.5 2146.88
103.5 2050.25
104.5 1897.38
105.5 2014.62
106.5 1948.38
107.5 2103.5
108.5 2060.88
109.5 2154.38
110.5 1941.62
111.5 2014
112.5 2011.25
113.5 2303.62
114.5 2208.75
115.5 2416.12
116.5 2207.62
117.5 2110
118.5 2313.5
119.5 2127.38
120.5 2144.5
121.5 2096
122.5 2228.38
123.5 2154.62
124.5 2014.12
125.5 2092
126.5 2146.88
127.5 2189.12
128.5 1920.38
129.5 2394
130.5 2355.88
131.5 2397.88
132.5 2425
133.5 2407
134.5 2398.62
135.5 2450.5
136.5 2484.12
137.5 2440.5
138.5 2369
139.5 2467.75
140.5 2488
141.5 2561.25
142.5 2341.62
143.5 2187.12
144.5 2465.38
145.5 2608.75
146.5 2366.25
147.5 2498.75
148.5 2579.25
149.5 2598
150.5 2313.38
151.5 2617.5
152.5 2511
153.5 2519.75
154.5 2535.75
155.5 2453
156.5 2368.62
157.5 2598.25
158.5 2548.5
159.5 2597.12
160.5 2569.38
161.5 2499.38
162.5 2640
163.5 2529
164.5 2331.12
165.5 2684.62
166.5 2799.62
167.5 2632.38
168.5 2524.75
169.5 2192.12
170.5 2712.75
171.5 2558.12
172.5 2526.25
173.5 2346
174.5 2502.88
175.5 2722.88
176.5 2790
177.5 2486.38
178.5 2569.75
179.5 2675.62
180.5 2759
181.5 2414.75
182.5 2027.12
183.5 2369.5
184.5 2538.12
185.5 2490.5
186.5 2474.25
187.5 2542.25
188.5 2646.38
189.5 2540.38
190.5 2603
191.5 2638.62
192.5 2509.5
193.5 2481.75
194.5 2688.38
195.5 2441.5
196.5 2496.25
197.5 2271.75
198.5 2753.25
199.5 2918
200.5 2535.88
201.5 2562.62
202.5 2522.25
203.5 2472.75
204.5 2593.12
205.5 2701
206.5 2675.12
207.5 2455.62
208.5 2699.12
209.5 2643.5
210.5 2805
211.5 2909.75
212.5 2971.75
213.5 3373.88
214.5 2790.5
215.5 3053.5
216.5 3011.88
217.5 3044.12
218.5 2801.75
219.5 2832.12
220.5 2683.5
221.5 2914
222.5 2709.25
223.5 2921.5
224.5 2787.62
225.5 3068.25
226.5 2946.5
227.5 3097.25
228.5 3015.75
229.5 3131.25
230.5 3217.88
231.5 3515.38
232.5 3381
233.5 3255.12
234.5 3161.25
235.5 3112.38
236.5 3016.38
237.5 3115.75
238.5 2629.25
239.5 2806.38
240.5 2854.5
241.5 2955.75
242.5 2719.38
243.5 2711.38
244.5 2805.38
245.5 3076.75
246.5 2988.25
247.5 2871.38
248.5 2920.25
249.5 2828
250.5 2965.5
251.5 2622.12
252.5 2583.5
253.5 2510.75
254.5 2484.5
255.5 2576.88
256.5 2445.88
257.5 2332.5
258.5 2558.25
259.5 2103.38
260.5 2155
261.5 2329.25
262.5 2144.75
263.5 2248.5
264.5 2327.38
265.5 2531
266.5 2267
267.5 2533.62
268.5 2528.62
269.5 2555.38
270.5 2584.88
271.5 2384.5
272.5 2393.25
273.5 2480.5
274.5 2359.88
275.5 2301.25
276.5 2480.75
277.5 2363.5
278.5 2291.88
279.5 2442.25
280.5 2366.88
281.5 2378.12
282.5 2256.25
283.5 2159
284.5 2206.75
285.5 2240.75
286.5 2224.88
287.5 2278.5
288.5 2225.88
289.5 2360.25
290.5 2207
291.5 2322.12
292.5 2256.5
293.5 2504
294.5 2301.62
295.5 2540.25
296.5 2312
297.5 2332
298.5 2252
299.5 2363.25
300.5 2108.25
301.5 2151.5
302.5 2219.62
303.5 2082.38
304.5 2321.38
305.5 2389.5
306.5 2211.62
307.5 2002.12
308.5 2057.38
309.5 1958.75
310.5 1849.38
311.5 1871
312.5 2299.75
313.5 2289
314.5 2544.12
315.5 2726.88
316.5 2796.62
317.5 2564.38
318.5 2475
319.5 2612.75
320.5 2251.12
321.5 2359.88
322.5 2315.75
323.5 2286.38
324.5 2345.88
325.5 2286.25
326.5 2291.75
327.5 2265.5
328.5 2223.88
329.5 2376.75
330.5 2346.88
331.5 2125
332.5 1967.75
333.5 1975.25
334.5 1675.12
335.5 1839.5
336.5 1904.75
337.5 1798
338.5 2037.25
339.5 1884.88
340.5 1870.25
341.5 1952.62
342.5 1763.75
343.5 1469.25
344.5 1585.88
345.5 1313.12
346.5 1241.88
347.5 1437.5
348.5 1487.38
349.5 1594.88
350.5 1808.62
351.5 1830.25
352.5 1688.75
353.5 1999.88
354.5 2183.5
355.5 1790.25
356.5 1672.62
357.5 1697.38
358.5 1716.12
359.5 1701.25
360.5 1543.12
361.5 1714
362.5 1912.38
363.5 1818
364.5 1749.38
365.5 1701.12
366.5 1712.12
367.5 1653
368.5 1639.75
369.5 1680.62
370.5 1781.75
371.5 1582.88
372.5 1834.12
373.5 1629.25
374.5 1682.5
375.5 1702
376.5 1724.5
377.5 1732.62
378.5 1700.12
379.5 1904.25
380.5 1583.62
381.5 1827.88
382.5 1657.12
383.5 1696.75
384.5 1813.38
385.5 1728.25
386.5 1803.5
387.5 1693.88
388.5 1637
389.5 1717.25
390.5 1623.88
391.5 1536.88
392.5 1591
393.5 1644.5
394.5 1556.25
395.5 1543.25
396.5 1663.12
397.5 1702.62
398.5 1611
399.5 1672.38
400.5 1592.38
401.5 1449.62
402.5 1610.88
403.5 1583.38
404.5 1175
405.5 1440.12
406.5 1568.88
407.5 1536.12
408.5 1578.38
409.5 1441.38
410.5 1435.88
411.5 1529.12
412.5 1719
413.5 1852.62
414.5 1913.25
415.5 1933.38
416.5 1968.62
417.5 1881.38
418.5 1854
419.5 1943.62
420.5 1910.5
421.5 1871.12
422.5 1775.12
423.5 1631.88
424.5 1558.38
425.5 1674.62
426.5 1443.88
427.5 1557.88
428.5 1327.5
429.5 1457.88
430.5 1392.75
431.5 1423.25
432.5 1397.62
433.5 1527.12
434.5 1445.12
435.5 1608.88
436.5 1483.25
437.5 1359.12
438.5 1407.12
439.5 1447.75
440.5 1470.38
441.5 1399.5
442.5 1179.38
443.5 1268
444.5 1188.62
445.5 1167.62
446.5 1106.25
447.5 1250.62
448.5 1161.62
449.5 1273
450.5 1621.88
451.5 1537.25
452.5 1566.5
453.5 1542.25
454.5 1641.38
455.5 1730.25
456.5 1660.88
457.5 1495.25
458.5 1518.5
459.5 1513
460.5 1381.5
461.5 1577.62
462.5 1460.75
463.5 1373.75
464.5 1615.5
465.5 1478.5
466.5 1565.38
467.5 1574.38
468.5 1314
469.5 1445.38
470.5 1472.25
471.5 1416
472.5 1521.75
473.5 1730.25
474.5 1803.25
475.5 1761.75
476.5 1641.25
477.5 1556.5
478.5 1656.75
479.5 1553.38
480.5 1620.62
481.5 1568.38
482.5 1604.88
483.5 1422.38
484.5 1403.75
485.5 1318.62
486.5 1483.5
487.5 1557
488.5 1594
489.5 1308.88
490.5 1461.25
491.5 1575.88
492.5 1473.75
493.5 1312.12
494.5 1362.88
495.5 1409.12
496.5 1274.25
497.5 1410.25
498.5 1317.5
499.5 1386.25
500.5 1406.25
501.5 1274.25
502.5 1467.88
503.5 1391.62
504.5 1540.62
505.5 1653.62
506.5 1838.88
507.5 3081.12
508.5 4851
509.5 8669.75
510.5 12718.6
511.5 12334.8
512.5 8053.12
513.5 3995.88
514.5 1887.25
515.5 1362.75
516.5 1493.25
517.5 1592.38
518.5 1432.12
519.5 1662
520.5 1576.62
521.5 1566.12
522.5 1511
523.5 1451.5
524.5 1450.88
525.5 1310.75
526.5 1391.62
527.5 1335.12
528.5 1389.88
529.5 1324.5
530.5 1138.75
531.5 1328.88
532.5 1221.38
533.5 1264.12
534.5 1159.5
535.5 1052.75
536.5 1173.88
537.5 1080.75
538.5 1150
539.5 1108
540.5 1230.38
541.5 1043.62
542.5 1194
543.5 1215.12
544.5 1176.25
545.5 1041.62
546.5 1034
547.5 841
548.5 890.125
549.5 763.375
550.5 961.875
551.5 1130.5
552.5 1047.12
553.5 1125.88
554.5 1063.88
555.5 1099
556.5 1191
557.5 1267
558.5 1173.5
559.5 1141
560.5 1249.75
561.5 1150.38
562.5 1207.75
563.5 1168.25
564.5 1267
565.5 1248.75
566.5 1097.25
567.5 1104.12
568.5 1215.12
569.5 1061
570.5 1205.25
571.5 1106.62
572.5 1057
573.5 1029.75
574.5 1102.38
575.5 1185
576.5 1112.62
577.5 1095.5
578.5 1113.88
579.5 963.875
580.5 1140.38
581.5 1014.5
582.5 1422.88
583.5 1681.25
584.5 1290.5
585.5 1153.75
586.5 1191.75
587.5 1091.62
588.5 1125.62
589.5 1075.12
590.5 1108.75
591.5 980.25
592.5 1076
593.5 1119.25
594.5 1102.75
595.5 1123.5
596.5 1051.12
597.5 1067
598.5 1008.25
599.5 1089.75
600.5 1084.38
601.5 1138.5
602.5 1010.5
603.5 1096.88
604.5 1143
605.5 1076
606.5 1126.12
607.5 1133.25
608.5 1167.62
609.5 1119.75
610.5 1065.12
611.5 1116.38
612.5 1198.88
613.5 1047.38
614.5 1077.88
615.5 1062.12
616.5 1113.88
617.5 1074.12
618.5 1007.62
619.5 1084.88
620.5 998
621.5 1069.12
622.5 1009.5
623.5 1186.25
624.5 1091.12
625.5 1114.5
626.5 1077.75
627.5 1048.75
628.5 1191
629.5 1009.38
630.5 1018.38
631.5 1079.12
632.5 1082.38
633.5 1076.38
634.5 1149
635.5 976
636.5 1120
637.5 1016.88
638.5 998.75
639.5 998
640.5 1029.38
641.5 1154
642.5 1186.62
643.5 1256.62
644.5 1227
645.5 1331.38
646.5 1328.62
647.5 1208.5
648.5 1250.88
649.5 1158.38
650.5 1191.12
651.5 1356.75
652.5 2506
653.5 3644.25
654.5 2850.5
655.5 1365.25
656.5 1073.62
657.5 1112.5
658.5 1102.25
659.5 1056.88
660.5 1117.75
661.5 1121.88
662.5 1032.12
663.5 1099.5
664.5 1244.5
665.5 1314
666.5 1111.62
667.5 1117.5
668.5 1191
669.5 977.375
670.5 992.125
671.5 1021
672.5 880.875
673.5 1005.38
674.5 910.625
675.5 944.125
676.5 1142.38
677.5 1120.62
678.5 1149.12
679.5 945.25
680.5 1026.75
681.5 1075.38
682.5 974.875
683.5 1059.5
684.5 1054.75
685.5 971.75
686.5 946.625
687.5 1004.75
688.5 1088.25
689.5 1119.5
690.5 1012.75
691.5 1010.88
692.5 1089.5
693.5 1078.62
694.5 1068.25
695.5 1023.12
696.5 1140.25
697.5 1090.38
698.5 1114.38
699.5 1016.62
700.5 1087.62
701.5 943.25
702.5 1074.75
703.5 1172
704.5 996.5
705.5 1106
706.5 900.375
707.5 1028.12
708.5 1208.88
709.5 913.75
710.5 1040.62
711.5 1094
712.5 1087.12
713.5 1027.88
714.5 1111.38
715.5 1093.12
716.5 1134.5
717.5 1087.88
718.5 944.125
719.5 1094.62
720.5 1050.62
721.5 974
722.5 1092
723.5 1099.75
724.5 1001.88
725.5 1097.75
726.5 1114.12
727.5 1217
728.5 1107.25
729.5 1117.5
730.5 1177
731.5 1058.62
732.5 1073.88
733.5 1129.12
734.5 1044.88
735.5 910.25
736.5 1045.62
737.5 858.75
738.5 1037.62
739.5 1121
740.5 1039
741.5 1096.75
742.5 1188.12
743.5 1321.12
744.5 1218.5
745.5 1266.5
746.5 1176.88
747.5 1285.12
748.5 1195.25
749.5 1190.5
750.5 1150.38
751.5 1160.25
752.5 1058.25
753.5 1131.38
754.5 1083.62
755.5 1043.62
756.5 1160.88
757.5 1034
758.5 990
759.5 1129
760.5 1060
761.5 1139.75
762.5 1216.88
763.5 1051
764.5 1032.25
765.5 1059.38
766.5 933.75
767.5 1067.5
768.5 885
769.5 967.5
770.5 1069.75
771.5 878.5
772.5 814.625
773.5 816.25
774.5 968.375
775.5 837.625
776.5 900.25
777.5 963.875
778.5 986.125
779.5 987.25
780.5 1094.88
781.5 1137.5
782.5 944.375
783.5 1005.25
784.5 1120.5
785.5 1117.25
786.5 1078.12
787.5 1024.38
788.5 1115.12
789.5 1051.12
790.5 1057.25
791.5 941.125
792.5 1043
793.5 997.875
794.5 1007.25
795.5 999.375
796.5 1136.62
797.5 1161.88
798.5 1153.12
799.5 1116.88
800.5 1120.75
801.5 1153.38
802.5 1226.5
803.5 1090
804.5 1057.88
805.5 1122.62
806.5 1185.62
807.5 1128.75
808.5 1073.88
809.5 1119.25
810.5 1057.62
811.5 1070.5
812.5 1063.12
813.5 1097.88
814.5 986.625
815.5 1059.88
816.5 1033.25
817.5 1092
818.5 1063.25
819.5 1070.62
820.5 1065.75
821.5 1052.38
822.5 1048.5
823.5 1019.25
824.5 1084.12
825.5 1121.5
826.5 1122.75
827.5 1072.62
828.5 1011
829.5 1232.75
830.5 1026.75
831.5 1051.88
832.5 1081
833.5 1194.5
834.5 1113.75
835.5 1186.25
836.5 1286.25
837.5 1353.88
838.5 1284.25
839.5 1209.5
840.5 1193.12
841.5 1168.75
842.5 1144.5
843.5 1269.5
844.5 1218.88
845.5 1159
846.5 1237.12
847.5 1297.25
848.5 1127.5
849.5 1337.5
850.5 1244.88
851.5 1378.5
852.5 1318.38
853.5 1318.5
854.5 1242.12
855.5 1122.62
856.5 1224.88
857.5 1192.38
858.5 1336.5
859.5 1173.88
860.5 1249.25
861.5 995.375
862.5 1234.12
863.5 1131.5
864.5 1072
865.5 1225.38
866.5 1196.88
867.5 1242.12
868.5 1334.38
869.5 1059.75
870.5 1248.75
871.5 1116.75
872.5 1183.38
873.5 1172
874.5 1308.38
875.5 1230.62
876.5 1275.5
877.5 1318.5
878.5 1156.88
879.5 1319.62
880.5 1271
881.5 1238.75
882.5 1270.62
883.5 1167.38
884.5 1279.12
885.5 1179.5
886.5 1335.62
887.5 1283.88
888.5 1225.88
889.5 1285
890.5 1367
891.5 1288.25
892.5 1235
893.5 1288.25
894.5 1439.12
895.5 1267.75
896.5 1281
897.5 1273
898.5 1319.25
899.5 1286.25
900.5 1235.25
901.5 1254
902.5 1413
903.5 1401.38
904.5 1359.38
905.5 1450.12
906.5 1433.38
907.5 1452.75
908.5 1448
909.5 1383.38
910.5 1483.25
911.5 1373.62
912.5 1536.25
913.5 1439.12
914.5 1423.62
915.5 1577.62
916.5 1497.62
917.5 1477.62
918.5 1568.88
919.5 1569.38
920.5 1652.62
921.5 1558.38
922.5 1462.38
923.5 1635.25
924.5 1573.75
925.5 1591.38
926.5 1787.88
927.5 1541
928.5 1523
929.5 1558
930.5 1710.62
931.5 1739.75
932.5 1725.88
933.5 1720.12
934.5 1664.25
935.5 1778.75
936.5 1764.88
937.5 1811.25
938.5 1719
939.5 1824.12
940.5 1919.25
941.5 1760.88
942.5 1766.38
943.5 1771.62
944.5 1776.12
945.5 1546.25
946.5 1669.5
947.5 1574.25
948.5 1538
949.5 1353.75
950.5 1502.88
951.5 1507.75
952.5 1270.25
953.5 1291.25
954.5 1263.25
955.5 1238.5
956.5 1314.12
957.5 1238.62
958.5 1182.38
959.5 1259.5
960.5 1208.75
961.5 1256.38
962.5 1159.5
963.5 1350.62
964.5 1383.12
965.5 1566.5
966.5 1925.75
967.5 1777.12
968.5 1355.25
969.5 1189.75
970.5 1052.25
971.5 1092.12
972.5 1050.5
973.5 1065.12
974.5 1068.75
975.5 1120.12
976.5 1109.25
977.5 1198.75
978.5 1213.75
979.5 1213.38
980.5 1014.38
981.5 1161.12
982.5 1207.5
983.5 1026.38
984.5 990.125
985.5 1075.62
986.5 1155.75
987.5 1074.12
988.5 1136.25
989.5 1066.25
990.5 996.75
991.5 1042.12
992.5 1068
993.5 1059.88
994.5 1027
995.5 1057.75
996.5 1034.5
997.5 1125
998.5 869.625
999.5 1094.75
1000.5 1110.25
1001.5 1082.88
1002.5 1003.25
1003.5 1166.75
1004.5 967
1005.5 997.25
1006.5 927.375
1007.5 944
1008.5 1001.62
1009.5 890
1010.5 964.875
1011.5 978.25
1012.5 962.875
1013.5 969.25
1014.5 951
1015.5 937.625
1016.5 844.25
1017.5 894.375
1018.5 1007.88
1019.5 957.875
1020.5 886.875
1021.5 865.375
1022.5 969.375
1023.5 1116.88
1024.5 1022.88
1025.5 937.75
1026.5 1030.88
1027.5 822.625
1028.5 862.5
1029.5 958.375
1030.5 806.875
1031.5 727
1032.5 822.5
1033.5 880.875
1034.5 852.5
1035.5 843.25
1036.5 793
1037.5 743.125
1038.5 826.5
1039.5 835.25
1040.5 775.75
1041.5 761.25
1042.5 866.125
1043.5 806.625
1044.5 763.25
1045.5 789.125
1046.5 780.125
1047.5 641.375
1048.5 778.375
1049.5 623.5
1050.5 670.25
1051.5 578.375
1052.5 732.875
1053.5 746
1054.5 659.25
1055.5 818
1056.5 826.5
1057.5 758.125
1058.5 745.125
1059.5 754.875
1060.5 692.375
1061.5 712.625
1062.5 654.25
1063.5 662.75
1064.5 636
1065.5 670.125
1066.5 684.125
1067.5 668.5
1068.5 777.5
1069.5 603.625
1070.5 661.875
1071.5 700.5
1072.5 744.5
1073.5 631.875
1074.5 485.125
1075.5 625.5
1076.5 613.25
1077.5 574.25
1078.5 648.375
1079.5 664.375
1080.5 653.625
1081.5 609.75
1082.5 607.875
1083.5 557
1084.5 590
1085.5 710
1086.5 644.5
1087.5 624.75
1088.5 629.125
1089.5 623.625
1090.5 696.875
1091.5 541.375
1092.5 552.125
1093.5 550.125
1094.5 628.5
1095.5 614.625
1096.5 648.875
1097.5 637.625
1098.5 710.625
1099.5 560.375
1100.5 599
1101.5 647.75
1102.5 686.75
1103.5 666.375
1104.5 584.375
1105.5 609
1106.5 647.5
1107.5 679.5
1108.5 657
1109.5 638.75
1110.5 606.25
1111.5 658.25
1112.5 694
1113.5 686.875
1114.5 648.875
1115.5 678.375
1116.5 606.125
1117.5 556.375
1118.5 589.25
1119.5 766.75
1120.5 695.375
1121.5 576
1122.5 613.375
1123.5 683.25
1124.5 697.375
1125.5 301.5
1126.5 388.75
1127.5 509.875
1128.5 761.25
1129.5 613.375
1130.5 616.5
1131.5 570.25
1132.5 658.375
1133.5 664.75
1134.5 635.125
1135.5 725.75
1136.5 716.75
1137.5 765.125
1138.5 751.75
1139.5 663.375
1140.5 699
1141.5 715.875
1142.5 715.625
1143.5 601
1144.5 647.125
1145.5 626.5
1146.5 632.75
1147.5 749.125
1148.5 698.625
1149.5 615
1150.5 804.25
1151.5 872.25
1152.5 1118.5
1153.5 3249.25
1154.5 12946.6
1155.5 45527.2
1156.5 99591.9
1157.5 101312
1158.5 42437.2
1159.5 9177.38
1160.5 1923
1161.5 757.875
1162.5 537.875
1163.5 471
1164.5 528.75
1165.5 422.75
1166.5 479.875
1167.5 438.875
1168.5 360.125
1169.5 434.875
1170.5 368.5
1171.5 382
1172.5 319.625
1173.5 358.875
1174.5 409.25
1175.5 436.125
1176.5 411.375
1177.5 383.125
1178.5 333.625
1179.5 357.625
1180.5 347
1181.5 395.125
1182.5 530.875
1183.5 398.5
1184.5 461.625
1185.5 356.875
1186.5 401.125
1187.5 492.5
1188.5 417.625
1189.5 400.75
1190.5 440
1191.5 448.625
1192.5 343.125
1193.5 389.625
1194.5 449.875
1195.5 415.25
1196.5 384.375
1197.5 403.75
1198.5 384.625
1199.5 398.375
1200.5 356
1201.5 287.75
1202.5 346
1203.5 353
1204.5 473.75
1205.5 549.875
1206.5 830.125
1207.5 934.5
1208.5 560.75
1209.5 462.375
1210.5 396.25
1211.5 411.875
1212.5 345.875
1213.5 492.875
1214.5 603.625
1215.5 522
1216.5 459.75
1217.5 373.375
1218.5 439.25
1219.5 382.125
1220.5 309.75
1221.5 385.875
1222.5 326.375
1223.5 516
1224.5 591.375
1225.5 1237.75
1226.5 2037.5
1227.5 2071.38
1228.5 1045.5
1229.5 575.5
1230.5 447.125
1231.5 436.5
1232.5 411.875
1233.5 384.875
1234.5 364.75
1235.5 492.5
1236.5 363.25
1237.5 377.5
1238.5 317.5
1239.5 398.25
1240.5 318.875
1241.5 341.375
1242.5 389.375
1243.5 338.625
1244.5 357.875
1245.5 362.25
1246.5 410.75
1247.5 360.375
1248.5 415.875
1249.5 293.375
1250.5 322.375
1251.5 292.125
1252.5 366.375
1253.5 377.625
1254.5 364.125
1255.5 348.5
1256.5 382.75
1257.5 333
1258.5 412.875
1259.5 438.25
1260.5 372.5
1261.5 442.75
1262.5 330
1263.5 411.75
1264.5 387.75
1265.5 399.375
1266.5 379.875
1267.5 366.75
1268.5 367.375
1269.5 388
1270.5 310.5
1271.5 369.875
1272.5 366.625
1273.5 323.625
1274.5 423.75
1275.5 319.5
1276.5 383.25
1277.5 358.25
1278.5 364
1279.5 348.75
1280.5 398.5
1281.5 420.25
1282.5 302.75
1283.5 357.125
1284.5 384.125
1285.5 363.375
1286.5 394.25
1287.5 332.125
1288.5 349
1289.5 363.875
1290.5 331.625
1291.5 422.5
1292.5 367
1293.5 392
1294.5 338
1295.5 387
1296.5 340.125
1297.5 414.625
1298.5 381.75
1299.5 337.375
1300.5 355
1301.5 401.75
1302.5 341.5
1303.5 410.375
1304.5 342.625
1305.5 338.5
1306.5 416.375
1307.5 404.5
1308.5 370.875
1309.5 354.875
1310.5 364.25
1311.5 382.625
1312.5 387
1313.5 370.5
1314.5 379.375
1315.5 389.25
1316.5 398.375
1317.5 362.875
1318.5 371.75
1319.5 374
1320.5 389.125
1321.5 299.625
1322.5 385.5
1323.5 363.375
1324.5 363.375
1325.5 402.25
1326.5 451.75
1327.5 395.25
1328.5 422.125
1329.5 486.5
1330.5 430.875
1331.5 407
1332.5 406
1333.5 344.875
1334.5 386.625
1335.5 407.25
1336.5 403.875
1337.5 423.625
1338.5 396.25
1339.5 392.25
1340.5 427.125
1341.5 408
1342.5 392.625
1343.5 383.5
1344.5 443
1345.5 381.875
1346.5 439.375
1347.5 449.75
1348.5 430.5
1349.5 421.25
1350.5 406.25
1351.5 373
1352.5 409.25
1353.5 476.5
1354.5 376.375
1355.5 446.125
1356.5 417.75
1357.5 347.875
1358.5 435
1359.5 490
1360.5 610.25
1361.5 608
1362.5 643.5
1363.5 512.25
1364.5 431
1365.5 346.625
1366.5 359.875
1367.5 395.75
1368.5 361.5
1369.5 409.5
1370.5 415.5
1371.5 381.25
1372.5 402.5
1373.5 456.5
1374.5 454.125
1375.5 469.125
1376.5 466.75
1377.5 442.875
1378.5 350.25
1379.5 448
1380.5 450
1381.5 489.5
1382.5 402.125
1383.5 402.5
1384.5 457.625
1385.5 490.5
1386.5 498.375
1387.5 523.25
1388.5 491.25
1389.5 421.375
1390.5 419.25
1391.5 576.875
1392.5 443.625
1393.5 472.875
1394.5 424.625
1395.5 400.125
1396.5 425.75
1397.5 399.25
1398.5 440
1399.5 448.125
1400.5 385.125
1401.5 383.5
1402.5 376.25
1403.5 399.25
1404.5 473.25
1405.5 352.875
1406.5 469.5
1407.5 453.25
1408.5 426.375
1409.5 465.5
1410.5 381
1411.5 432.75
1412.5 449.75
1413.5 470.625
1414.5 422.875
1415.5 438.375
1416.5 448
1417.5 461.375
1418.5 501.125
1419.5 456.25
1420.5 489.125
1421.5 463.875
1422.5 434.25
1423.5 437.625
1424.5 392.125
1425.5 445.5
1426.5 375.75
1427.5 384.25
1428.5 529.875
1429.5 320.5
1430.5 440.25
1431.5 394.75
1432.5 433.625
1433.5 328.75
1434.5 387.5
1435.5 350.75
1436.5 379.25
1437.5 422.625
1438.5 442.375
1439.5 423.25
1440.5 532.5
1441.5 708.125
1442.5 842
1443.5 834.125
1444.5 504.25
1445.5 391.125
1446.5 321.625
1447.5 337.25
1448.5 392.5
1449.5 388.375
1450.5 390.75
1451.5 400.625
1452.5 409.625
1453.5 401.75
1454.5 385
1455.5 374.875
1456.5 465
1457.5 425.5
1458.5 396.625
1459.5 419.125
1460.5 377.625
1461.5 394.625
1462.5 405.5
1463.5 387.625
1464.5 388.5
1465.5 406.75
