# EGG_ProjY_E3809.0(3.0)_B3803.5(1.5)_B3817.0(2.0)
# X axis : Energy (keV) [Y axis]
# Y axis : Counts/1 keV
# N Bins : 12000
# X Min : 0
# X Max : 12000
# X value at the center of the bins
0.5 0
1.5 0
2.5 0
3.5 0
4.5 0
5.5 2.85714
6.5 -10.5714
7.5 1.42857
8.5 -0.142857
9.5 5.71429
10.5 -6.42857
11.5 7
12.5 5.14286
13.5 -5.14286
14.5 8.14286
15.5 35.1429
16.5 18.8571
17.5 12.8571
18.5 40.7143
19.5 93.2857
20.5 58.1429
21.5 122.429
22.5 89.1429
23.5 114.571
24.5 141.571
25.5 124.286
26.5 123.143
27.5 210.143
28.5 170
29.5 206.714
30.5 256.714
31.5 111
32.5 282.429
33.5 326.143
34.5 319.286
35.5 263.857
36.5 240.714
37.5 211.143
38.5 327.571
39.5 298.571
40.5 304.429
41.5 219.571
42.5 379.143
43.5 263.571
44.5 236
45.5 318
46.5 298.571
47.5 234.571
48.5 225.571
49.5 387.429
50.5 360.571
51.5 347
52.5 394.286
53.5 350
54.5 402.286
55.5 403.143
56.5 344.286
57.5 369.143
58.5 531.429
59.5 483.714
60.5 351.429
61.5 445.286
62.5 377.571
63.5 335.857
64.5 231.286
65.5 311.857
66.5 456.286
67.5 460.857
68.5 438.857
69.5 231
70.5 405.429
71.5 362.429
72.5 320.714
73.5 477.571
74.5 565.143
75.5 544.714
76.5 680.143
77.5 673.714
78.5 590
79.5 367.571
80.5 274.857
81.5 373.429
82.5 372.429
83.5 333
84.5 360.571
85.5 324.857
86.5 498.429
87.5 514.143
88.5 455.143
89.5 462.571
90.5 475.286
91.5 406.286
92.5 462.429
93.5 439.429
94.5 348.429
95.5 329.143
96.5 313.714
97.5 325.571
98.5 439.857
99.5 358.143
100.5 284.429
101.5 363
102.5 394.286
103.5 461.429
104.5 421.143
105.5 240.714
106.5 341.714
107.5 355
108.5 350.857
109.5 415.429
110.5 311.286
111.5 389.143
112.5 529.571
113.5 366.143
114.5 533.143
115.5 438.714
116.5 483.429
117.5 438
118.5 346.429
119.5 253.429
120.5 415.857
121.5 413
122.5 364.429
123.5 242.286
124.5 471
125.5 418.571
126.5 452.143
127.5 419.286
128.5 461.143
129.5 356.143
130.5 373.143
131.5 375.286
132.5 441.429
133.5 580.143
134.5 627.286
135.5 405.857
136.5 556.286
137.5 471.714
138.5 436.429
139.5 498
140.5 400.571
141.5 368.429
142.5 318.429
143.5 347.286
144.5 390.429
145.5 530.714
146.5 488.286
147.5 475.857
148.5 450
149.5 457
150.5 463.571
151.5 371.714
152.5 507.429
153.5 253.714
154.5 463.714
155.5 482
156.5 464.286
157.5 450.857
158.5 572.714
159.5 594.857
160.5 585
161.5 758.143
162.5 707.286
163.5 737.571
164.5 688
165.5 623.143
166.5 568.429
167.5 525.286
168.5 355.143
169.5 391.286
170.5 498.571
171.5 422.143
172.5 451
173.5 639.286
174.5 572.857
175.5 456.143
176.5 584.571
177.5 395.571
178.5 479.714
179.5 568.571
180.5 583.286
181.5 425.714
182.5 493
183.5 564.429
184.5 471.286
185.5 566.143
186.5 489
187.5 471.143
188.5 523.714
189.5 554
190.5 396.571
191.5 493.714
192.5 608.143
193.5 586
194.5 439.429
195.5 467
196.5 581.429
197.5 543.429
198.5 578.857
199.5 493.429
200.5 623.286
201.5 504.857
202.5 674.143
203.5 577
204.5 493.429
205.5 489
206.5 525.571
207.5 597
208.5 495.429
209.5 686.143
210.5 557.571
211.5 636.857
212.5 571.143
213.5 587.286
214.5 644.571
215.5 710.857
216.5 777.571
217.5 671.286
218.5 656.714
219.5 547.286
220.5 588.143
221.5 675.286
222.5 671.286
223.5 544
224.5 607.286
225.5 663.857
226.5 642.143
227.5 612.429
228.5 512.857
229.5 599
230.5 522.286
231.5 539
232.5 593.714
233.5 611.429
234.5 554.429
235.5 622.571
236.5 698.143
237.5 646.429
238.5 628.429
239.5 582
240.5 529.857
241.5 620
242.5 490.429
243.5 516.429
244.5 641
245.5 585.286
246.5 480.429
247.5 404
248.5 549.857
249.5 525.857
250.5 479.429
251.5 475.143
252.5 589.286
253.5 426.429
254.5 407.429
255.5 481.429
256.5 527
257.5 410.571
258.5 297
259.5 490.143
260.5 595.286
261.5 488.286
262.5 517.857
263.5 507.714
264.5 477
265.5 418.857
266.5 426.143
267.5 368
268.5 542.571
269.5 530.143
270.5 448.143
271.5 403.429
272.5 437
273.5 441.714
274.5 519.714
275.5 375
276.5 463.714
277.5 473.286
278.5 401.571
279.5 464.571
280.5 477.714
281.5 357.857
282.5 570.571
283.5 475.571
284.5 377.571
285.5 429.714
286.5 526.714
287.5 321.286
288.5 439.286
289.5 282.429
290.5 415.286
291.5 451.429
292.5 454
293.5 386.286
294.5 373.143
295.5 431.286
296.5 484.571
297.5 485.286
298.5 785.714
299.5 693
300.5 672.286
301.5 389.714
302.5 385.429
303.5 374.714
304.5 499.429
305.5 518.286
306.5 473.714
307.5 394.286
308.5 282.429
309.5 379.143
310.5 417.143
311.5 411.571
312.5 354.286
313.5 352.143
314.5 412.286
315.5 429.571
316.5 302.143
317.5 344.429
318.5 445.857
319.5 313.571
320.5 286
321.5 388.429
322.5 342.857
323.5 420.286
324.5 335.286
325.5 480.286
326.5 441.429
327.5 474.429
328.5 381.429
329.5 525.714
330.5 355.714
331.5 334.429
332.5 373.857
333.5 285.857
334.5 349
335.5 382.714
336.5 268.143
337.5 339
338.5 412.571
339.5 537.429
340.5 398.714
341.5 372.857
342.5 427
343.5 240.429
344.5 298.857
345.5 260.286
346.5 385.286
347.5 367.857
348.5 339.571
349.5 269
350.5 245.714
351.5 314
352.5 299.714
353.5 363.857
354.5 285.143
355.5 400.571
356.5 366.571
357.5 482.571
358.5 483.857
359.5 501.143
360.5 454.714
361.5 383.857
362.5 272.714
363.5 332.857
364.5 300.571
365.5 394.286
366.5 263.429
367.5 424.857
368.5 471
369.5 465.857
370.5 362.286
371.5 348.714
372.5 335.286
373.5 306.857
374.5 298.143
375.5 319.857
376.5 345.429
377.5 356
378.5 228.857
379.5 356.429
380.5 281.857
381.5 270.429
382.5 336.714
383.5 305.286
384.5 266.143
385.5 281.143
386.5 345.571
387.5 254.429
388.5 261.714
389.5 231.857
390.5 312.857
391.5 263.857
392.5 239.286
393.5 314
394.5 318.571
395.5 355.286
396.5 438.429
397.5 432.571
398.5 486.143
399.5 388.286
400.5 463.857
401.5 408.857
402.5 565.714
403.5 1215.86
404.5 1244.43
405.5 483.857
406.5 432
407.5 332.286
408.5 416.714
409.5 376.857
410.5 409.714
411.5 331.571
412.5 289.143
413.5 211.857
414.5 251.143
415.5 307.714
416.5 334.571
417.5 246.429
418.5 235.286
419.5 261
420.5 217.714
421.5 255.143
422.5 254.143
423.5 273.286
424.5 340.286
425.5 292
426.5 332
427.5 264.571
428.5 302.571
429.5 294.286
430.5 254.714
431.5 307
432.5 284.571
433.5 257.429
434.5 273.571
435.5 266.857
436.5 281.286
437.5 267.857
438.5 340.143
439.5 247.571
440.5 312.857
441.5 330
442.5 353.429
443.5 283.857
444.5 244.571
445.5 266.857
446.5 229.286
447.5 297
448.5 320.857
449.5 296
450.5 386
451.5 265.714
452.5 364.143
453.5 374.571
454.5 416.571
455.5 294.143
456.5 345.429
457.5 259.429
458.5 246.857
459.5 279
460.5 291.571
461.5 255.714
462.5 243.286
463.5 260.714
464.5 328.571
465.5 239
466.5 327.429
467.5 256
468.5 304.857
469.5 292.571
470.5 400.429
471.5 358.714
472.5 354.143
473.5 342.143
474.5 276.714
475.5 349.714
476.5 359.714
477.5 222.857
478.5 337.571
479.5 294.143
480.5 267.286
481.5 302.571
482.5 273
483.5 218.286
484.5 255.857
485.5 304.857
486.5 285.857
487.5 241
488.5 396.286
489.5 322
490.5 296
491.5 333
492.5 351.714
493.5 240.571
494.5 357.286
495.5 267.714
496.5 323
497.5 266.857
498.5 280.714
499.5 274.857
500.5 245.429
501.5 277.286
502.5 278
503.5 361.286
504.5 290.143
505.5 351.857
506.5 448.571
507.5 510.714
508.5 1064.57
509.5 1378.29
510.5 1761.14
511.5 1617.86
512.5 990.429
513.5 508.143
514.5 370
515.5 342.571
516.5 156.857
517.5 231.143
518.5 321.143
519.5 307.571
520.5 331.714
521.5 284.286
522.5 307.571
523.5 219
524.5 287.714
525.5 291.286
526.5 234.714
527.5 298
528.5 280.714
529.5 253.143
530.5 288.143
531.5 284.857
532.5 332.714
533.5 218.286
534.5 280.857
535.5 252.429
536.5 300.714
537.5 292.714
538.5 259.571
539.5 301.429
540.5 127.143
541.5 231.143
542.5 239.714
543.5 238.429
544.5 310.286
545.5 295.143
546.5 279
547.5 211.857
548.5 267.429
549.5 147.286
550.5 231.857
551.5 253.429
552.5 246.857
553.5 238.143
554.5 288.286
555.5 271.143
556.5 215.714
557.5 246.857
558.5 220.571
559.5 200.429
560.5 294.429
561.5 230.857
562.5 213
563.5 235.286
564.5 320.714
565.5 249
566.5 247.429
567.5 285.571
568.5 276.571
569.5 311.714
570.5 251.857
571.5 262.714
572.5 246.571
573.5 279.857
574.5 269.714
575.5 257.286
576.5 264.429
577.5 250.571
578.5 274.857
579.5 295.143
580.5 295.143
581.5 309
582.5 207.714
583.5 236.429
584.5 175.143
585.5 189.429
586.5 214.286
587.5 193
588.5 192.429
589.5 188.429
590.5 225.857
591.5 209.571
592.5 205.429
593.5 211.143
594.5 174
595.5 222.143
596.5 125.571
597.5 223.286
598.5 216.429
599.5 210.429
600.5 201.714
601.5 185.429
602.5 280.571
603.5 194.286
604.5 227.286
605.5 216.429
606.5 220.571
607.5 267
608.5 279
609.5 230.571
610.5 217
611.5 223.143
612.5 197
613.5 233.714
614.5 221.429
615.5 238.714
616.5 178.857
617.5 174.143
618.5 252.286
619.5 263
620.5 198.714
621.5 263.571
622.5 239.286
623.5 230
624.5 287.143
625.5 335.143
626.5 258.571
627.5 376.286
628.5 294
629.5 358.857
630.5 186.429
631.5 186.571
632.5 215.143
633.5 200
634.5 219.286
635.5 225.143
636.5 238.143
637.5 168.143
638.5 242.857
639.5 107.714
640.5 106.571
641.5 218.714
642.5 174.571
643.5 271.857
644.5 304.143
645.5 301.857
646.5 370.429
647.5 304.143
648.5 297.286
649.5 394.143
650.5 499.571
651.5 600.714
652.5 578.286
653.5 704.714
654.5 484.571
655.5 270.143
656.5 162.286
657.5 208.429
658.5 162.857
659.5 216.429
660.5 230.429
661.5 236.714
662.5 232.857
663.5 234.857
664.5 205.286
665.5 220.143
666.5 295.286
667.5 192.429
668.5 225.857
669.5 234.714
670.5 241.143
671.5 217.429
672.5 193.571
673.5 210.286
674.5 235.143
675.5 179.143
676.5 184.143
677.5 187.429
678.5 286.429
679.5 242.429
680.5 192.286
681.5 240.286
682.5 263.429
683.5 233
684.5 224
685.5 225.143
686.5 233.714
687.5 268.286
688.5 236.429
689.5 235
690.5 219.857
691.5 206.571
692.5 252
693.5 268.143
694.5 228.286
695.5 203.429
696.5 240.286
697.5 309.571
698.5 240.857
699.5 207.286
700.5 271.857
701.5 286.571
702.5 367.857
703.5 325.286
704.5 299.143
705.5 180.143
706.5 186.286
707.5 229.143
708.5 185.571
709.5 238.714
710.5 250.143
711.5 150.286
712.5 182.857
713.5 207.143
714.5 204.143
715.5 256.429
716.5 252.143
717.5 219.143
718.5 254
719.5 221.286
720.5 199.429
721.5 223.429
722.5 237.714
723.5 291
724.5 182.286
725.5 266.143
726.5 302.429
727.5 210
728.5 221.429
729.5 253.429
730.5 190.143
731.5 271.429
732.5 253.714
733.5 242.571
734.5 221.429
735.5 231.429
736.5 275.571
737.5 264.429
738.5 265.857
739.5 221.286
740.5 289.429
741.5 273.571
742.5 287.143
743.5 264.143
744.5 257.714
745.5 238.429
746.5 282.857
747.5 288.429
748.5 199.143
749.5 215.143
750.5 244.143
751.5 258.143
752.5 267.429
753.5 217.286
754.5 240.714
755.5 296.571
756.5 230.571
757.5 330.714
758.5 363
759.5 857.571
760.5 2105.43
761.5 2384.14
762.5 1151.29
763.5 455.286
764.5 288.143
765.5 203.429
766.5 254.429
767.5 213
768.5 234.429
769.5 203.714
770.5 246.857
771.5 250.286
772.5 251.571
773.5 187.571
774.5 228.286
775.5 226.714
776.5 258.857
777.5 314.286
778.5 240.286
779.5 225.714
780.5 176.571
781.5 164.571
782.5 225
783.5 186.714
784.5 259.143
785.5 229.857
786.5 269.286
787.5 213.857
788.5 277.571
789.5 280.286
790.5 191
791.5 256.429
792.5 275.857
793.5 210.571
794.5 294.571
795.5 171.857
796.5 252.429
797.5 148.571
798.5 253.429
799.5 236.714
800.5 232.143
801.5 206.571
802.5 233.571
803.5 234
804.5 172.286
805.5 252.429
806.5 236.571
807.5 240.857
808.5 191.429
809.5 229.714
810.5 272
811.5 313.571
812.5 219.714
813.5 283.857
814.5 226
815.5 253.429
816.5 209.143
817.5 207.286
818.5 262
819.5 210
820.5 214.571
821.5 188
822.5 213.857
823.5 191.714
824.5 248.286
825.5 227.286
826.5 221.286
827.5 237.286
828.5 199.571
829.5 238.429
830.5 238
831.5 239.286
832.5 189.571
833.5 222.143
834.5 193.857
835.5 230.143
836.5 256.714
837.5 228.714
838.5 329.857
839.5 309.571
840.5 235
841.5 224.714
842.5 167.571
843.5 255.571
844.5 248.571
845.5 221.143
846.5 202.857
847.5 230.857
848.5 231.143
849.5 183.143
850.5 269.143
851.5 250.429
852.5 263.429
853.5 286.857
854.5 234.857
855.5 191.571
856.5 285.571
857.5 250.429
858.5 290.714
859.5 213.857
860.5 242.429
861.5 223.429
862.5 266.286
863.5 232.286
864.5 286.571
865.5 272.429
866.5 242.143
867.5 258
868.5 349.429
869.5 379
870.5 342.429
871.5 170
872.5 247.571
873.5 248.714
874.5 281.571
875.5 294.714
876.5 419.429
877.5 313.714
878.5 253.857
879.5 284.143
880.5 202.143
881.5 258.286
882.5 293
883.5 266.286
884.5 252.286
885.5 247
886.5 289.857
887.5 218
888.5 244.714
889.5 299.857
890.5 285.857
891.5 231.286
892.5 275.143
893.5 309.714
894.5 269.714
895.5 323.143
896.5 331.143
897.5 246.714
898.5 317.143
899.5 259.857
900.5 254.429
901.5 359.286
902.5 312.714
903.5 303.429
904.5 289
905.5 284.429
906.5 307.714
907.5 313.286
908.5 288.143
909.5 260.429
910.5 292.571
911.5 276.286
912.5 355.714
913.5 298.571
914.5 247.571
915.5 244
916.5 241.143
917.5 291
918.5 240.714
919.5 236.857
920.5 250.571
921.5 321.286
922.5 299.143
923.5 258.429
924.5 303.714
925.5 303.286
926.5 279.714
927.5 296.429
928.5 272
929.5 298.714
930.5 316.429
931.5 286
932.5 270.714
933.5 258.143
934.5 285.429
935.5 305
936.5 325.429
937.5 266.286
938.5 325.714
939.5 338.714
940.5 306.857
941.5 313.143
942.5 334.286
943.5 307.571
944.5 314.714
945.5 298.429
946.5 292.571
947.5 289.857
948.5 205.429
949.5 230
950.5 179.143
951.5 280.857
952.5 280.286
953.5 261.286
954.5 185
955.5 195.143
956.5 226.714
957.5 249.286
958.5 262.571
959.5 209.429
960.5 237.571
961.5 188.857
962.5 265
963.5 304.286
964.5 598.857
965.5 1458.14
966.5 2212.71
967.5 1613.71
968.5 619.143
969.5 330.714
970.5 248.429
971.5 194.429
972.5 225.429
973.5 178.857
974.5 292.429
975.5 214.857
976.5 170.571
977.5 147.857
978.5 208.857
979.5 165.714
980.5 195
981.5 254.286
982.5 139.857
983.5 202.429
984.5 235.714
985.5 243.571
986.5 200
987.5 153.429
988.5 160.571
989.5 204.714
990.5 188.429
991.5 173.143
992.5 196.571
993.5 220.143
994.5 170.286
995.5 172.857
996.5 173.286
997.5 190.571
998.5 175.286
999.5 208.714
1000.5 351.571
1001.5 694.143
1002.5 531.857
1003.5 263.429
1004.5 257.571
1005.5 204.714
1006.5 231
1007.5 167.714
1008.5 183.571
1009.5 178.714
1010.5 135.286
1011.5 193.714
1012.5 170.429
1013.5 203.857
1014.5 154.571
1015.5 217.857
1016.5 178.857
1017.5 150.143
1018.5 133.286
1019.5 205.143
1020.5 165.143
1021.5 179.143
1022.5 185
1023.5 298
1024.5 554.429
1025.5 402.571
1026.5 182.714
1027.5 123.714
1028.5 130.143
1029.5 143.857
1030.5 152.286
1031.5 131.857
1032.5 134.571
1033.5 110.286
1034.5 161.857
1035.5 130.429
1036.5 169.571
1037.5 167.286
1038.5 134.143
1039.5 105
1040.5 187.857
1041.5 133.714
1042.5 110.571
1043.5 166.714
1044.5 167.286
1045.5 146.286
1046.5 119.143
1047.5 127.857
1048.5 150.429
1049.5 126
1050.5 104.429
1051.5 181
1052.5 159.857
1053.5 111.857
1054.5 100.429
1055.5 92.8571
1056.5 106.714
1057.5 121.714
1058.5 98
1059.5 122.429
1060.5 122.286
1061.5 152.286
1062.5 123.143
1063.5 166.571
1064.5 151.714
1065.5 128.714
1066.5 159
1067.5 96.1429
1068.5 123.429
1069.5 155.286
1070.5 140.429
1071.5 179.143
1072.5 305.143
1073.5 633.857
1074.5 733.857
1075.5 330.714
1076.5 122.857
1077.5 135.857
1078.5 118.714
1079.5 115.429
1080.5 111.857
1081.5 119.714
1082.5 156.143
1083.5 91.5714
1084.5 100.143
1085.5 102.714
1086.5 122.571
1087.5 79.8571
1088.5 107.143
1089.5 114
1090.5 183.429
1091.5 171.429
1092.5 75.2857
1093.5 122.286
1094.5 102.429
1095.5 115.571
1096.5 103.429
1097.5 141.714
1098.5 62.1429
1099.5 89.7143
1100.5 82.2857
1101.5 118.857
1102.5 128.857
1103.5 86.2857
1104.5 133.429
1105.5 120.286
1106.5 62.8571
1107.5 148.286
1108.5 134.286
1109.5 111.286
1110.5 102.429
1111.5 117
1112.5 117.571
1113.5 133.429
1114.5 108.143
1115.5 106.714
1116.5 108.571
1117.5 94.7143
1118.5 130.857
1119.5 141.143
1120.5 116.571
1121.5 136.571
1122.5 234.429
1123.5 748.429
1124.5 2725.14
1125.5 6192.29
1126.5 7300.71
1127.5 3259.14
1128.5 854.429
1129.5 266.857
1130.5 125
1131.5 88.1429
1132.5 93.5714
1133.5 87.4286
1134.5 114.857
1135.5 113.143
1136.5 84.7143
1137.5 92.5714
1138.5 111.857
1139.5 101.429
1140.5 74.8571
1141.5 111.857
1142.5 129.143
1143.5 110.571
1144.5 79.7143
1145.5 87.7143
1146.5 82.8571
1147.5 96
1148.5 123.286
1149.5 139.571
1150.5 107.714
1151.5 96
1152.5 131.429
1153.5 455.857
1154.5 1644.57
1155.5 5802.29
1156.5 13025
1157.5 13650.9
1158.5 5727
1159.5 1180
1160.5 231.286
1161.5 101.143
1162.5 80.7143
1163.5 73.8571
1164.5 92.2857
1165.5 53.7143
1166.5 60.1429
1167.5 49.1429
1168.5 90.1429
1169.5 70
1170.5 84
1171.5 98
1172.5 110.143
1173.5 81.2857
1174.5 63.5714
1175.5 77.8571
1176.5 60.7143
1177.5 45.7143
1178.5 27.4286
1179.5 46.7143
1180.5 104
1181.5 134.286
1182.5 142.857
1183.5 179.857
1184.5 120.429
1185.5 132.571
1186.5 103
1187.5 100.571
1188.5 120
1189.5 94.2857
1190.5 65.1429
1191.5 101.571
1192.5 70.2857
1193.5 65.1429
1194.5 82.5714
1195.5 66.8571
1196.5 52.7143
1197.5 46.1429
1198.5 64.4286
1199.5 30.7143
1200.5 92.1429
1201.5 52.1429
1202.5 30.4286
1203.5 41.5714
1204.5 46.1429
1205.5 41.8571
1206.5 78.1429
1207.5 59.7143
1208.5 44.4286
1209.5 62.4286
1210.5 53.2857
1211.5 72.1429
1212.5 69.5714
1213.5 65.2857
1214.5 96.1429
1215.5 98.1429
1216.5 68.2857
1217.5 55.5714
1218.5 52
1219.5 65.8571
1220.5 58.8571
1221.5 90.7143
1222.5 74.1429
1223.5 55.2857
1224.5 47.7143
1225.5 58.7143
1226.5 57.2857
1227.5 89.4286
1228.5 106
1229.5 102.857
1230.5 57.4286
1231.5 75.7143
1232.5 85.5714
1233.5 85.2857
1234.5 53.8571
1235.5 43.4286
1236.5 51.8571
1237.5 75.1429
1238.5 73.5714
1239.5 38.2857
1240.5 61.7143
1241.5 13.8571
1242.5 30.7143
1243.5 41
1244.5 111.429
1245.5 129.714
1246.5 52.8571
1247.5 77.8571
1248.5 65.7143
1249.5 67.5714
1250.5 49.5714
1251.5 80.5714
1252.5 67.7143
1253.5 45.4286
1254.5 59.7143
1255.5 83.4286
1256.5 64.8571
1257.5 64.2857
1258.5 103.429
1259.5 42.4286
1260.5 105.429
1261.5 57.4286
1262.5 70.7143
1263.5 80
1264.5 92.7143
1265.5 120.571
1266.5 128.714
1267.5 126.857
1268.5 109.143
1269.5 66.2857
1270.5 66.7143
1271.5 61.2857
1272.5 70.2857
1273.5 60.5714
1274.5 70.7143
1275.5 34.5714
1276.5 62.2857
1277.5 38.4286
1278.5 78
1279.5 43.5714
1280.5 84.2857
1281.5 68.7143
1282.5 23.7143
1283.5 32.7143
1284.5 61.2857
1285.5 53.4286
1286.5 64.7143
1287.5 64
1288.5 73.4286
1289.5 58.7143
1290.5 63.4286
1291.5 93.4286
1292.5 43.4286
1293.5 97.8571
1294.5 82
1295.5 74.4286
1296.5 49.1429
1297.5 64
1298.5 45
1299.5 42.2857
1300.5 60
1301.5 38.7143
1302.5 58.4286
1303.5 47.7143
1304.5 63.7143
1305.5 42.2857
1306.5 64.1429
1307.5 65.5714
1308.5 44.8571
1309.5 51.5714
1310.5 22.5714
1311.5 72.4286
1312.5 56
1313.5 71.1429
1314.5 75.7143
1315.5 110.143
1316.5 38.8571
1317.5 71.4286
1318.5 50.5714
1319.5 28.8571
1320.5 48
1321.5 81.1429
1322.5 71.1429
1323.5 69.5714
1324.5 63.5714
1325.5 73.5714
1326.5 31.2857
1327.5 43.7143
1328.5 67.1429
1329.5 53.4286
1330.5 65.4286
1331.5 56.8571
1332.5 28.1429
1333.5 33.4286
1334.5 29.2857
1335.5 36.1429
1336.5 24.1429
1337.5 57.5714
1338.5 86.4286
1339.5 42
1340.5 53.7143
1341.5 42.7143
1342.5 63.7143
1343.5 57.8571
1344.5 50
1345.5 60
1346.5 55
1347.5 65
1348.5 65.4286
1349.5 106.571
1350.5 70.8571
1351.5 49
1352.5 53.8571
1353.5 52.2857
1354.5 53.2857
1355.5 65.5714
1356.5 36.7143
1357.5 63.8571
1358.5 56.4286
1359.5 67.5714
1360.5 37.8571
1361.5 43.4286
1362.5 56.4286
1363.5 48
1364.5 47.1429
1365.5 54.5714
1366.5 69.5714
1367.5 75.4286
1368.5 49.5714
1369.5 43.1429
1370.5 18.2857
1371.5 23.5714
1372.5 23.2857
1373.5 61.1429
1374.5 51.8571
1375.5 75
1376.5 84.4286
1377.5 53.1429
1378.5 45.5714
1379.5 60.2857
1380.5 64.7143
1381.5 55.7143
1382.5 74
1383.5 30.8571
1384.5 22.5714
1385.5 80
1386.5 65.7143
1387.5 114.857
1388.5 121.429
1389.5 97.7143
1390.5 61.5714
1391.5 93.5714
1392.5 63.8571
1393.5 52.5714
1394.5 64
1395.5 27.7143
1396.5 64.2857
1397.5 40.8571
1398.5 22.4286
1399.5 39.5714
1400.5 46.8571
1401.5 47.8571
1402.5 85.7143
1403.5 40.1429
1404.5 39.2857
1405.5 33.2857
1406.5 35.7143
1407.5 50
1408.5 40.7143
1409.5 69.7143
1410.5 55.2857
1411.5 60
1412.5 74.5714
1413.5 101
1414.5 113.143
1415.5 106.857
1416.5 71.4286
1417.5 99.2857
1418.5 92.1429
1419.5 63.7143
1420.5 77.4286
1421.5 71.2857
1422.5 70
1423.5 80.7143
1424.5 97.2857
1425.5 56.2857
1426.5 93.4286
1427.5 179.857
1428.5 294.571
1429.5 278
1430.5 163.429
1431.5 74.1429
1432.5 70
1433.5 52.4286
1434.5 34.1429
1435.5 62.8571
1436.5 52.8571
1437.5 58.5714
1438.5 59.8571
1439.5 76.1429
1440.5 41.2857
1441.5 67.4286
1442.5 69.2857
1443.5 44.8571
1444.5 45
1445.5 59
