# EGG_ProjY_E4657.0(5.0)_B4670.5(1.5)_B4591.0(2.0)
# X axis : Energy (keV) [Y axis]
# Y axis : Counts/1 keV
# N Bins : 12000
# X Min : 0
# X Max : 12000
# X value at the center of the bins
0.5 0
1.5 0
2.5 0
3.5 0
4.5 0
5.5 20.7143
6.5 17.4286
7.5 10.1429
8.5 2.42857
9.5 11.5714
10.5 29.7143
11.5 35
12.5 25
13.5 19
14.5 23
15.5 18.1429
16.5 -29.1429
17.5 41.8571
18.5 77.7143
19.5 23.5714
20.5 81.8571
21.5 16.7143
22.5 28.7143
23.5 55.7143
24.5 -24.5714
25.5 81.1428
26.5 143.286
27.5 69.8571
28.5 68.8571
29.5 294.429
30.5 416.429
31.5 349.571
32.5 242.143
33.5 164.143
34.5 168.143
35.5 182
36.5 151.143
37.5 123.286
38.5 341.857
39.5 158.143
40.5 156
41.5 193.143
42.5 18.2857
43.5 35
44.5 164.857
45.5 82
46.5 136.714
47.5 233.571
48.5 160.714
49.5 134.714
50.5 149.143
51.5 161.714
52.5 163.857
53.5 155.571
54.5 364.286
55.5 256.714
56.5 206.429
57.5 193.429
58.5 250.714
59.5 291
60.5 314.714
61.5 192.857
62.5 176.429
63.5 113.714
64.5 196
65.5 221.857
66.5 301
67.5 207.571
68.5 140.714
69.5 255.143
70.5 182.286
71.5 285.714
72.5 208
73.5 387.286
74.5 398.143
75.5 354.143
76.5 587.571
77.5 507.857
78.5 256
79.5 86.1428
80.5 238.571
81.5 185.286
82.5 158.143
83.5 168.571
84.5 104
85.5 360.714
86.5 269
87.5 219.571
88.5 312.143
89.5 232.286
90.5 211
91.5 203
92.5 300
93.5 290.286
94.5 190.429
95.5 289.429
96.5 340.429
97.5 202.857
98.5 310.429
99.5 160.714
100.5 353.429
101.5 212.429
102.5 269.429
103.5 127
104.5 248
105.5 246.571
106.5 337.857
107.5 353.857
108.5 386.714
109.5 281.286
110.5 265.571
111.5 161.143
112.5 239.714
113.5 280.571
114.5 291.429
115.5 321.143
116.5 369.571
117.5 315
118.5 137.429
119.5 163.286
120.5 365.286
121.5 444.857
122.5 141.286
123.5 341.143
124.5 298.571
125.5 295.143
126.5 163
127.5 253.429
128.5 314.286
129.5 287.714
130.5 214.714
131.5 198.857
132.5 348.571
133.5 32.4285
134.5 173.429
135.5 163.429
136.5 282.571
137.5 270.286
138.5 180.286
139.5 265
140.5 235.286
141.5 74.8571
142.5 309.714
143.5 275.857
144.5 278
145.5 334.286
146.5 381.714
147.5 365.429
148.5 486.571
149.5 516.286
150.5 278.857
151.5 365.143
152.5 399.571
153.5 326
154.5 442.714
155.5 332
156.5 309.857
157.5 229.286
158.5 312.571
159.5 191
160.5 263.571
161.5 204.286
162.5 185.286
163.5 315.429
164.5 146.714
165.5 432.429
166.5 227.429
167.5 300.286
168.5 50.1428
169.5 109.143
170.5 86.8571
171.5 391.571
172.5 790.571
173.5 3268.29
174.5 6455.86
175.5 2876.29
176.5 547
177.5 286.286
178.5 317.571
179.5 467.571
180.5 477
181.5 523.286
182.5 627.143
183.5 779.857
184.5 706.857
185.5 593.571
186.5 689.857
187.5 751
188.5 623.286
189.5 552.857
190.5 420.429
191.5 520.571
192.5 418.571
193.5 304.143
194.5 247.143
195.5 293.571
196.5 260.286
197.5 248.714
198.5 199.286
199.5 78.8571
200.5 210.714
201.5 157.714
202.5 125.571
203.5 60.7142
204.5 183.429
205.5 243.429
206.5 239.286
207.5 182.714
208.5 -21.0001
209.5 9.85707
210.5 -83.1429
211.5 -87.8572
212.5 -341.572
213.5 -329.286
214.5 -248
215.5 -84.8572
216.5 28.7142
217.5 36.7142
218.5 199
219.5 296.143
220.5 204.286
221.5 551.429
222.5 530.714
223.5 539.429
224.5 519.429
225.5 813.571
226.5 852.857
227.5 778.286
228.5 711.571
229.5 783.286
230.5 614.571
231.5 472.143
232.5 486.714
233.5 413.429
234.5 470.714
235.5 345
236.5 251.571
237.5 274.714
238.5 265.571
239.5 106
240.5 238.429
241.5 248
242.5 276.143
243.5 235.429
244.5 153.857
245.5 190.857
246.5 108.571
247.5 -96.0001
248.5 137.143
249.5 -123.286
250.5 -18.1429
251.5 -103.143
252.5 -61.1429
253.5 132.857
254.5 4.71423
255.5 193.286
256.5 309.429
257.5 339.286
258.5 334.429
259.5 317.714
260.5 442.571
261.5 380
262.5 343
263.5 320.286
264.5 274
265.5 371.571
266.5 175.571
267.5 107
268.5 271.714
269.5 144.143
270.5 174.286
271.5 51.1428
272.5 -51.8572
273.5 134.429
274.5 26.1428
275.5 90.8571
276.5 127.714
277.5 83.8571
278.5 175.714
279.5 149.429
280.5 124.571
281.5 258.571
282.5 256.857
283.5 322.571
284.5 375.143
285.5 362.571
286.5 292.857
287.5 247.286
288.5 213
289.5 91.4285
290.5 119
291.5 74.4285
292.5 -27.1429
293.5 -196.857
294.5 -91.8572
295.5 -216.714
296.5 -11.4286
297.5 102.714
298.5 49.8571
299.5 107.429
300.5 158.714
301.5 168.143
302.5 207.857
303.5 252.714
304.5 160.143
305.5 293.571
306.5 138.714
307.5 63.1428
308.5 198.429
309.5 26.8571
310.5 -39.4286
311.5 -33.1429
312.5 45
313.5 17.1428
314.5 217.429
315.5 230.714
316.5 268.143
317.5 236.429
318.5 275.286
319.5 468.286
320.5 245.286
321.5 422
322.5 427.857
323.5 476.429
324.5 474.286
325.5 435.286
326.5 107.714
327.5 225.714
328.5 257.143
329.5 16.5714
330.5 4.8571
331.5 74.1428
332.5 47.4285
333.5 19
334.5 99
335.5 103
336.5 66.7142
337.5 142.714
338.5 169.857
339.5 197.286
340.5 227.286
341.5 280.571
342.5 320.714
343.5 270.286
344.5 313.714
345.5 265.571
346.5 296.571
347.5 475.571
348.5 1049.71
349.5 1495.14
350.5 760.571
351.5 165
352.5 56.1428
353.5 65.7142
354.5 23.8571
355.5 68.1428
356.5 65
357.5 207.286
358.5 -15.8572
359.5 57.7143
360.5 62.4285
361.5 26.4285
362.5 -59.8572
363.5 1.71425
364.5 104.857
365.5 187.714
366.5 96.1428
367.5 196.571
368.5 324.857
369.5 181.714
370.5 325.571
371.5 222
372.5 241.571
373.5 232.714
374.5 226
375.5 256.571
376.5 243.143
377.5 244.429
378.5 156.714
379.5 229.143
380.5 182
381.5 181.857
382.5 223.714
383.5 138.286
384.5 165.571
385.5 113.286
386.5 107.143
387.5 112.429
388.5 -37
389.5 -83
390.5 -40.2857
391.5 -37.2857
392.5 -149.857
393.5 -33.1429
394.5 -24.7143
395.5 150
396.5 -54.5715
397.5 80.7143
398.5 52.8571
399.5 80
400.5 101.714
401.5 130.571
402.5 7.42853
403.5 92.1428
404.5 66.5714
405.5 101.714
406.5 70.1428
407.5 164.286
408.5 102.857
409.5 166.857
410.5 50
411.5 -22.1429
412.5 21
413.5 30.2857
414.5 166.714
415.5 72.8571
416.5 86.4285
417.5 63.8571
418.5 -55.8572
419.5 94.7143
420.5 80.1428
421.5 31.1428
422.5 51.4285
423.5 33.7143
424.5 63.2857
425.5 93.4285
426.5 148.714
427.5 206.714
428.5 131.857
429.5 44.1428
430.5 195.857
431.5 117.714
432.5 153.857
433.5 113.714
434.5 72.8571
435.5 90.4285
436.5 116.857
437.5 110.571
438.5 111.429
439.5 20.1428
440.5 96.8571
441.5 32.2857
442.5 77.4285
443.5 -15.5715
444.5 37.7143
445.5 -56.8572
446.5 33.5714
447.5 76.5714
448.5 50
449.5 125.714
450.5 100.286
451.5 48.5714
452.5 85.5714
453.5 7.85712
454.5 126.857
455.5 139.429
456.5 132
457.5 62.8571
458.5 60.5714
459.5 167.571
460.5 103.429
461.5 49.4285
462.5 33.7143
463.5 37
464.5 206
465.5 230.286
466.5 87.5714
467.5 72.8571
468.5 86.1428
469.5 87.1428
470.5 129.714
471.5 48.1428
472.5 37.5714
473.5 158.429
474.5 209.571
475.5 -43.2857
476.5 119.857
477.5 246.571
478.5 153.714
479.5 162.429
480.5 92.4285
481.5 201.714
482.5 156.714
483.5 128.857
484.5 198.857
485.5 141
486.5 123.714
487.5 -6.71431
488.5 124.143
489.5 48.8571
490.5 82.2857
491.5 24.2857
492.5 67.2857
493.5 28.4285
494.5 -3.57145
495.5 43.4285
496.5 43.1428
497.5 60
498.5 69.8571
499.5 -12.2857
500.5 46.8571
501.5 169.857
502.5 154
503.5 54.8571
504.5 226.429
505.5 398
506.5 585.714
507.5 820.286
508.5 1126.14
509.5 2045.57
510.5 2821.57
511.5 2251.71
512.5 1385.57
513.5 544.143
514.5 229
515.5 130
516.5 16
517.5 63.4285
518.5 -2.71431
519.5 65.7143
520.5 13
521.5 55.4286
522.5 25.4286
523.5 9.14284
524.5 18.1428
525.5 52.1428
526.5 65.5714
527.5 19.4286
528.5 107
529.5 33.4286
530.5 116.571
531.5 -25.7143
532.5 139.143
533.5 67.5714
534.5 96.8571
535.5 149.714
536.5 95.1428
537.5 22.5714
538.5 27
539.5 52.7143
540.5 56
541.5 85.1428
542.5 19.4286
543.5 90.5714
544.5 50.5714
545.5 -62.7143
546.5 23.4286
547.5 25.5714
548.5 72.7143
549.5 4.99998
550.5 67.2857
551.5 57.7143
552.5 74.7143
553.5 99.2857
554.5 72.1428
555.5 82.4286
556.5 8.14284
557.5 -18.4286
558.5 104.286
559.5 13.1428
560.5 32
561.5 109.857
562.5 66.2857
563.5 59.2857
564.5 151.143
565.5 52
566.5 -41.1429
567.5 83.4286
568.5 73.8571
569.5 94.1428
570.5 55.4286
571.5 39.8571
572.5 30.8571
573.5 56.8571
574.5 -22.1429
575.5 12.1428
576.5 96.4286
577.5 -17.4286
578.5 100.714
579.5 84.5714
580.5 139.286
581.5 104.429
582.5 39.1428
583.5 150
584.5 110
585.5 45.1428
586.5 65.7143
587.5 64.1428
588.5 40
589.5 43.2857
590.5 15.2857
591.5 -18.5714
592.5 -18.4286
593.5 11.1428
594.5 39.4286
595.5 82.8571
596.5 84.5714
597.5 34.8571
598.5 16.4286
599.5 25.4286
600.5 81.4286
601.5 93.1428
602.5 76.8571
603.5 -20.1429
604.5 57.1428
605.5 48.4286
606.5 81.7143
607.5 79.1428
608.5 61.1428
609.5 69.5714
610.5 110.143
611.5 40.8571
612.5 -7.00002
613.5 114.429
614.5 51.4286
615.5 106.286
616.5 65.7143
617.5 80.8571
618.5 84.2857
619.5 22.4286
620.5 73.7143
621.5 12.8571
622.5 -9.57144
623.5 35.4286
624.5 103.286
625.5 24.5714
626.5 57.1428
627.5 -19.1429
628.5 -3.71432
629.5 -8.85717
630.5 29.5714
631.5 12
632.5 123
633.5 49.2857
634.5 27.5714
635.5 26.8571
636.5 64.2857
637.5 17.4285
638.5 33
639.5 59.7143
640.5 88.8571
641.5 98.5714
642.5 93.7143
643.5 -1.7143
644.5 58.4286
645.5 -1.57145
646.5 72.5714
647.5 107
648.5 115
649.5 64
650.5 13
651.5 -22.8572
652.5 -13.8572
653.5 37
654.5 -54.4286
655.5 -4.57145
656.5 63.1428
657.5 63.8571
658.5 -8.57144
659.5 -18.1429
660.5 51.4286
661.5 -10.4286
662.5 65.8571
663.5 -15.5714
664.5 78.1428
665.5 -21.5715
666.5 51
667.5 40.2857
668.5 -31.1429
669.5 -25.4286
670.5 26.4286
671.5 12.7143
672.5 36
673.5 -60.4286
674.5 16.1428
675.5 16
676.5 36.1428
677.5 55.1428
678.5 28.4286
679.5 2.85713
680.5 -62.8572
681.5 -3.57144
682.5 14.2857
683.5 12.7143
684.5 -101.571
685.5 -7.00002
686.5 23.2857
687.5 -20.7143
688.5 42.8571
689.5 20.4286
690.5 178.429
691.5 146.429
692.5 139.714
693.5 153.429
694.5 153.571
695.5 156.571
696.5 125.286
697.5 185.571
698.5 159.143
699.5 98.5714
700.5 154.714
701.5 134.429
702.5 87
703.5 47.7143
704.5 48
705.5 15.1428
706.5 41.2857
707.5 49.2857
708.5 33.5714
709.5 6.2857
710.5 54.2857
711.5 -3.57144
712.5 -48.8572
713.5 77.5714
714.5 71
715.5 56.2857
716.5 35.4286
717.5 5.2857
718.5 13.5714
719.5 59.7143
720.5 1.85713
721.5 -35.7143
722.5 -18.2857
723.5 40
724.5 4.71427
725.5 -52.5714
726.5 -84.2857
727.5 -40.2857
728.5 9.14284
729.5 60.2857
730.5 55.5714
731.5 35.7143
732.5 119.429
733.5 168.286
734.5 97.7143
735.5 143.143
736.5 218
737.5 133
738.5 187.571
739.5 182
740.5 86.7143
741.5 144.143
742.5 121.143
743.5 148.286
744.5 88.7143
745.5 73.7143
746.5 -5.57144
747.5 15.2857
748.5 5.99999
749.5 40.1428
750.5 110.857
751.5 57.7143
752.5 82
753.5 98.2857
754.5 93.2857
755.5 46.7143
756.5 21.5714
757.5 7.2857
758.5 16.2857
759.5 84.1428
760.5 414.714
761.5 541
762.5 199.286
763.5 -50.8572
764.5 -34.7143
765.5 16.5714
766.5 -29.5714
767.5 7.71427
768.5 79.1428
769.5 4.2857
770.5 111.714
771.5 9.99999
772.5 -10.8572
773.5 -10.8572
774.5 47.4286
775.5 18.2857
776.5 43
777.5 46.8571
778.5 65.1428
779.5 29.2857
780.5 71.1428
781.5 -3.42858
782.5 16.5714
783.5 59.8571
784.5 -28.8572
785.5 -16.5714
786.5 16.2857
787.5 35.4286
788.5 -6.57145
789.5 -8.14287
790.5 -0.857157
791.5 99
792.5 67
793.5 -19.2857
794.5 25.5714
795.5 38.1428
796.5 10.7143
797.5 18.4286
798.5 -2.14287
799.5 -7.14287
800.5 -58.2857
801.5 -61.5714
802.5 -18
803.5 12
804.5 -68.7143
805.5 29
806.5 -23.8572
807.5 33.8571
808.5 59.8571
809.5 66.8571
810.5 85
811.5 107.429
812.5 306.429
813.5 647.143
814.5 866.143
815.5 503.286
816.5 146
817.5 -14.5714
818.5 76.8571
819.5 0.428558
820.5 21.8571
821.5 104.857
822.5 98.7143
823.5 29.7143
824.5 49.2857
825.5 78.2857
826.5 78.8571
827.5 50.5714
828.5 161.571
829.5 21
830.5 102
831.5 -11.8572
832.5 87.4286
833.5 142.143
834.5 26.1428
835.5 69.8571
836.5 38
837.5 99
838.5 -27.8572
839.5 36.2857
840.5 64.5714
841.5 1.85713
842.5 121.857
843.5 -60.1429
844.5 12.5714
845.5 11.4286
846.5 64.2857
847.5 1.85713
848.5 33.2857
849.5 101
850.5 34.1428
851.5 93.2857
852.5 3.42856
853.5 109.857
854.5 89
855.5 141.429
856.5 13.7143
857.5 42.5714
858.5 32
859.5 7.42856
860.5 20.7143
861.5 94.1428
862.5 61.2857
863.5 31.1428
864.5 41.1428
865.5 78.4286
866.5 44
867.5 45.1428
868.5 -7.4286
869.5 -65.2857
870.5 34.2857
871.5 69.7143
872.5 31.4286
873.5 80.4286
874.5 79.2857
875.5 58.8571
876.5 51.2857
877.5 127
878.5 103.571
879.5 29.7143
880.5 64.7143
881.5 145.857
882.5 33.1428
883.5 100.714
884.5 26.7143
885.5 95.8571
886.5 20
887.5 6.14284
888.5 78.2857
889.5 96
890.5 47.4286
891.5 70.5714
892.5 44.7143
893.5 4.71427
894.5 54
895.5 -3.85716
896.5 109.143
897.5 163.857
898.5 60.8571
899.5 71
900.5 84.5714
901.5 95.2857
902.5 56.2857
903.5 57
904.5 2.71427
905.5 15.8571
906.5 -5.57144
907.5 55.1428
908.5 69.7143
909.5 45.7143
910.5 78.5714
911.5 28.1428
912.5 0.857126
913.5 32.7143
914.5 34.5714
915.5 67.1428
916.5 49.2857
917.5 97.7143
918.5 19.4286
919.5 20.5714
920.5 -41.8572
921.5 7.14284
922.5 7.71427
923.5 95.5714
924.5 -58.8572
925.5 52.5714
926.5 -16.4286
927.5 110.714
928.5 77.2857
929.5 32.1428
930.5 15.4286
931.5 71.5714
932.5 37.4286
933.5 77.5714
934.5 112
935.5 27.8571
936.5 94.2857
937.5 56.2857
938.5 -30.8572
939.5 23.1428
940.5 75.1428
941.5 4.14284
942.5 23
943.5 56.2857
944.5 -77.1429
945.5 17.7143
946.5 72.8571
947.5 29.5714
948.5 60.5714
949.5 58.2857
950.5 -27.2857
951.5 26.7143
952.5 107.857
953.5 75.2857
954.5 161.714
955.5 54
956.5 98.5714
957.5 15.8571
958.5 -24.4286
959.5 41.8571
960.5 14.1428
961.5 29
962.5 -7.14287
963.5 10.2857
964.5 12.5714
965.5 -39.7143
966.5 90.4286
967.5 25
968.5 -27.7143
969.5 18.1428
970.5 -6.57144
971.5 7.71427
972.5 -21.5714
973.5 61.1428
974.5 39.1428
975.5 35.7143
976.5 87.2857
977.5 20.8571
978.5 3.71427
979.5 37.4286
980.5 18.2857
981.5 0.142843
982.5 -49.2857
983.5 -49.7143
984.5 -13.2857
985.5 26.4286
986.5 98.2857
987.5 -29.4286
988.5 -13.5714
989.5 6.85713
990.5 17.7143
991.5 9.2857
992.5 9.14285
993.5 34.5714
994.5 105.429
995.5 74.8571
996.5 21.5714
997.5 31.4286
998.5 62.4286
999.5 66
1000.5 57.2857
1001.5 -143.143
1002.5 15.2857
1003.5 97.5714
1004.5 18
1005.5 68.1428
1006.5 46.4286
1007.5 82.1428
1008.5 36.4286
1009.5 16
1010.5 54.1428
1011.5 6.85713
1012.5 43.2857
1013.5 -2.7143
1014.5 45
1015.5 -11.8572
1016.5 25
1017.5 52.1428
1018.5 -20.4286
1019.5 -18.7143
1020.5 38.4286
1021.5 51.8571
1022.5 -50.2857
1023.5 -5.42859
1024.5 35.8571
1025.5 61.8571
1026.5 17.7143
1027.5 5.71428
1028.5 61.5714
1029.5 13
1030.5 69.1428
1031.5 102.857
1032.5 -5.28572
1033.5 28
1034.5 -0.42858
1035.5 33.4286
1036.5 36
1037.5 15.2857
1038.5 -0.285722
1039.5 63.4286
1040.5 91.1428
1041.5 -5.85715
1042.5 19.5714
1043.5 41.5714
1044.5 -13.2857
1045.5 -3.85715
1046.5 61.1428
1047.5 24.7143
1048.5 65.7143
1049.5 -3.00001
1050.5 5.14285
1051.5 21.8571
1052.5 75.2857
1053.5 -28.1429
1054.5 35.8571
1055.5 -25.1429
1056.5 -1.7143
1057.5 31.8571
1058.5 50.7143
1059.5 73.1428
1060.5 32.4286
1061.5 -2.00001
1062.5 37.8571
1063.5 21.8571
1064.5 24.7143
1065.5 13.5714
1066.5 50.1428
1067.5 0.14285
1068.5 52.8571
1069.5 12.1428
1070.5 21.1428
1071.5 26.8571
1072.5 -61.5715
1073.5 23.2857
1074.5 319.429
1075.5 114.143
1076.5 -1.42859
1077.5 19.5714
1078.5 74.1429
1079.5 16.5714
1080.5 55.5714
1081.5 -5.42858
1082.5 63.8571
1083.5 -34.4286
1084.5 37
1085.5 41
1086.5 18.5714
1087.5 43.8571
1088.5 21
1089.5 28.1428
1090.5 33.8571
1091.5 16.8571
1092.5 7.57142
1093.5 51.5714
1094.5 70.8571
1095.5 32.1428
1096.5 45.5714
1097.5 -10.5714
1098.5 18.8571
1099.5 45.4286
1100.5 40.8571
1101.5 51.5714
1102.5 16
1103.5 41.2857
1104.5 40
1105.5 30.1429
1106.5 0.285707
1107.5 33.4286
1108.5 45
1109.5 40.1429
1110.5 23.8571
1111.5 38.1429
1112.5 40.4286
1113.5 53.2857
1114.5 42.1429
1115.5 51.5714
1116.5 105.571
1117.5 39.8571
1118.5 37.4286
1119.5 42.5714
1120.5 33.7143
1121.5 -14
1122.5 55.2857
1123.5 169.429
1124.5 140.143
1125.5 454
1126.5 807
1127.5 345.571
1128.5 71.8571
1129.5 29.1428
1130.5 9.71428
1131.5 24.7143
1132.5 45.1429
1133.5 25
1134.5 8.28571
1135.5 1.42857
1136.5 57.8571
1137.5 87.8571
1138.5 13.8571
1139.5 -45.8572
1140.5 -36
1141.5 -2.42858
1142.5 -11
1143.5 17.8571
1144.5 -62
1145.5 4.42857
1146.5 32.2857
1147.5 19.5714
1148.5 23.1429
1149.5 41.5714
1150.5 46.7143
1151.5 40.1429
1152.5 60.5714
1153.5 154.571
1154.5 166.571
1155.5 647
1156.5 2160.29
1157.5 1665.71
1158.5 719.143
1159.5 113.571
1160.5 -7.14287
1161.5 65.5714
1162.5 -13.1429
1163.5 -6.14286
1164.5 -23.4286
1165.5 1.57142
1166.5 -26.5714
1167.5 5.71428
1168.5 -2.85715
1169.5 42.1429
1170.5 36.1429
1171.5 6
1172.5 32.1429
1173.5 -55.5714
1174.5 27.7143
1175.5 29.2857
1176.5 60
1177.5 19.1429
1178.5 26
1179.5 19.4286
1180.5 -12.8571
1181.5 61
1182.5 -20.4286
1183.5 -3.42858
1184.5 -19.8571
1185.5 11.7143
1186.5 52
1187.5 -5.57143
1188.5 15.4286
1189.5 -1
1190.5 44.5714
1191.5 40.8571
1192.5 20.1429
1193.5 17.7143
1194.5 53.8571
1195.5 17.7143
1196.5 11.8571
1197.5 23.5714
1198.5 19.5714
1199.5 -20.8571
1200.5 -6.42858
1201.5 9.28571
1202.5 30.4286
1203.5 29.5714
1204.5 32.7143
1205.5 -24.4286
1206.5 44.8571
1207.5 37.1429
1208.5 -19.7143
1209.5 12.5714
1210.5 9.42857
1211.5 36.2857
1212.5 -12.2857
1213.5 27.4286
1214.5 10.1429
1215.5 35.4286
1216.5 15.1429
1217.5 9.85714
1218.5 8.85714
1219.5 -21.5714
1220.5 35.1429
1221.5 4.28571
1222.5 -5.00001
1223.5 9.28571
1224.5 14.2857
1225.5 -12.8571
1226.5 -22.2857
1227.5 27.1429
1228.5 -9.42858
1229.5 -14.2857
1230.5 -48.1429
1231.5 44.2857
1232.5 4.42857
1233.5 25.1429
1234.5 40.8571
1235.5 70.8571
1236.5 38.4286
1237.5 29.8571
1238.5 33.2857
1239.5 89.5714
1240.5 58.1429
1241.5 88
1242.5 10.1429
1243.5 54.1429
1244.5 24.4286
1245.5 40.1429
1246.5 80
1247.5 17.8571
1248.5 14.1429
1249.5 28.4286
1250.5 -13.1429
1251.5 12.4286
1252.5 39.8571
1253.5 11.4286
1254.5 15.2857
1255.5 42.2857
1256.5 38.4286
1257.5 88.5714
1258.5 115.714
1259.5 290.143
1260.5 402.857
1261.5 344.286
1262.5 109.857
1263.5 51.8571
1264.5 27.4286
1265.5 30.2857
1266.5 59
1267.5 41.1429
1268.5 13.4286
1269.5 32.2857
1270.5 8
1271.5 17.7143
1272.5 32.5714
1273.5 27.7143
1274.5 26.8571
1275.5 -9.57143
1276.5 31.1429
1277.5 22.2857
1278.5 1.71428
1279.5 21
1280.5 16.4286
1281.5 -16.4286
1282.5 -35.7143
1283.5 19.5714
1284.5 22.2857
1285.5 -2.57143
1286.5 12.1429
1287.5 21.1429
1288.5 17.1429
1289.5 33.7143
1290.5 29
1291.5 34.1429
1292.5 20.8571
1293.5 -0.428575
1294.5 -24.8571
1295.5 2.28571
1296.5 0.999996
1297.5 5.42857
1298.5 0.999996
1299.5 49.4286
1300.5 -22
1301.5 10.8571
1302.5 -3.28572
1303.5 22.2857
1304.5 -9.57143
1305.5 -52.5714
1306.5 -4.57143
1307.5 -7.42858
1308.5 -21.7143
1309.5 -35.5714
1310.5 -24.4286
1311.5 10.7143
1312.5 38.4286
1313.5 1.71428
1314.5 56.4286
1315.5 -3.42858
1316.5 -14.1429
1317.5 18.1429
1318.5 -26.5714
1319.5 -17.8571
1320.5 9.14285
1321.5 13.2857
1322.5 -12.5714
1323.5 20.1429
1324.5 -21.7143
1325.5 -28.1429
1326.5 2.42857
1327.5 -37.8571
1328.5 -59.4286
1329.5 -1.71429
1330.5 -14.8571
1331.5 21.5714
1332.5 -28.5714
1333.5 28.2857
1334.5 9
1335.5 5.71428
1336.5 -0.857146
1337.5 25.4286
1338.5 10.2857
1339.5 23.7143
1340.5 19.7143
1341.5 19.8571
1342.5 20.1429
1343.5 40
1344.5 10.8571
1345.5 22.5714
1346.5 13.8571
1347.5 0.571424
1348.5 -0.142861
1349.5 9.85714
1350.5 7
1351.5 8.85714
1352.5 19.5714
1353.5 43.7143
1354.5 -14.2857
1355.5 14.8571
1356.5 36
1357.5 29
1358.5 5.71428
1359.5 -9.71429
1360.5 57.7143
1361.5 12.1429
1362.5 9.28571
1363.5 43.4286
1364.5 -7.57143
1365.5 9.57142
1366.5 32.2857
1367.5 36.7143
1368.5 49
1369.5 12.1429
1370.5 2.14285
1371.5 49.5714
1372.5 31.5714
1373.5 20.4286
1374.5 40.1429
1375.5 40.4286
1376.5 40.7143
1377.5 6.57142
1378.5 5.71428
1379.5 -13.7143
1380.5 39.7143
1381.5 -3.14286
1382.5 45.4286
1383.5 7.71428
1384.5 -1.28572
1385.5 22.7143
1386.5 25.7143
1387.5 20.4286
1388.5 2.28571
1389.5 56.8571
1390.5 1.85714
1391.5 22.8571
1392.5 26
1393.5 9.42857
1394.5 -8.57143
1395.5 9.14285
1396.5 18.5714
1397.5 27.2857
1398.5 44.4286
1399.5 26.8571
1400.5 41.2857
1401.5 -1.28572
1402.5 0.714283
1403.5 26.4286
1404.5 27
1405.5 7
1406.5 18.5714
1407.5 -10
1408.5 17.7143
1409.5 -1.14286
1410.5 26.7143
1411.5 6.57142
1412.5 35.4286
1413.5 5.85714
1414.5 13
1415.5 -3.57143
1416.5 -7.28572
1417.5 5.71428
1418.5 -18.2857
1419.5 38.2857
1420.5 9.42857
1421.5 23.7143
1422.5 28.7143
1423.5 -25.5714
1424.5 13
1425.5 16.1429
1426.5 5.99999
1427.5 -29.4286
1428.5 56.2857
1429.5 -70
1430.5 -14.8571
1431.5 21.8571
1432.5 18.4286
1433.5 119.571
