# EGG_ProjY_E1016.5(4.5)_B1009.5(1.5)_B1033.0(2.0)
# X axis : Energy (keV) [Y axis]
# Y axis : Counts/1 keV
# N Bins : 12000
# X Min : 0
# X Max : 12000
# X value at the center of the bins
0.5 0
1.5 0
2.5 0
3.5 0
4.5 0
5.5 -33.8571
6.5 28.2857
7.5 -38.5714
8.5 35.1429
9.5 42.4286
10.5 0.428574
11.5 16.8571
12.5 40.5714
13.5 76
14.5 2.28572
15.5 76.8572
16.5 188.857
17.5 61.7143
18.5 232.714
19.5 190.714
20.5 207.857
21.5 364.714
22.5 284
23.5 626.857
24.5 658.286
25.5 787.286
26.5 700.286
27.5 848.429
28.5 765
29.5 729.572
30.5 1249.43
31.5 1000.57
32.5 1030.86
33.5 723.857
34.5 997.143
35.5 1034.86
36.5 915.143
37.5 1273.29
38.5 1172.86
39.5 862.429
40.5 740
41.5 658.143
42.5 -228.285
43.5 18.4288
44.5 1395.57
45.5 1249.71
46.5 1272
47.5 1165.71
48.5 791.286
49.5 1141.71
50.5 1129.14
51.5 1364.29
52.5 1138.86
53.5 1337.71
54.5 1255.14
55.5 1328.86
56.5 1866.43
57.5 1985.71
58.5 2145.71
59.5 1885
60.5 2047.29
61.5 1343
62.5 913.714
63.5 913.857
64.5 866.714
65.5 892.286
66.5 1225.57
67.5 1394.57
68.5 1109.71
69.5 908.429
70.5 1068.57
71.5 1275.71
72.5 1491.14
73.5 1753.57
74.5 2313.43
75.5 2594.29
76.5 3185.14
77.5 3449.71
78.5 1775.14
79.5 144.286
80.5 783.714
81.5 1309.86
82.5 1471.57
83.5 1338.14
84.5 1545
85.5 1396.43
86.5 1439.86
87.5 1487.14
88.5 722.715
89.5 330.857
90.5 -290.428
91.5 -1368.86
92.5 -1743.14
93.5 -1737.14
94.5 -929
95.5 98.2859
96.5 1319.57
97.5 1972
98.5 1809.86
99.5 1856.86
100.5 2064.43
101.5 2015
102.5 2138.29
103.5 3007.14
104.5 4601.14
105.5 5302.29
106.5 7138.29
107.5 7600
108.5 8040.86
109.5 8310.86
110.5 8118.43
111.5 8101.71
112.5 7189
113.5 3648.43
114.5 -338
115.5 -4434.71
116.5 -5802.86
117.5 -4825.29
118.5 -2675.71
119.5 -1456.14
120.5 -3522.14
121.5 -8343.14
122.5 -14689.6
123.5 -18982.7
124.5 -18349.6
125.5 -12577.6
126.5 -5750.43
127.5 -582.714
128.5 1677.43
129.5 2179.14
130.5 1889.71
131.5 2890.57
132.5 3276.71
133.5 4703
134.5 8409.57
135.5 14702.9
136.5 22615.1
137.5 28289.1
138.5 30961.9
139.5 31556.7
140.5 32140.7
141.5 31956.3
142.5 30500.4
143.5 25240.3
144.5 11790.6
145.5 -6237.29
146.5 -22631.4
147.5 -28375
148.5 -22265.1
149.5 -11435.6
150.5 -3249.57
151.5 318.429
152.5 1336.43
153.5 926.286
154.5 1035.71
155.5 1189.29
156.5 1766.29
157.5 1243.14
158.5 1908.43
159.5 1980.14
160.5 1606.29
161.5 1564.29
162.5 1749
163.5 2129.43
164.5 2405.57
165.5 1844
166.5 2135.71
167.5 2138.29
168.5 2455.71
169.5 2470
170.5 1854.29
171.5 1790.57
172.5 1575.14
173.5 1346.57
174.5 1570.29
175.5 1633.14
176.5 1575.43
177.5 1538.71
178.5 2100.14
179.5 1741.71
180.5 1816.29
181.5 1776.86
182.5 1520
183.5 2104.43
184.5 1830.43
185.5 2111.57
186.5 2212
187.5 2206.43
188.5 1999.43
189.5 2055.71
190.5 1920.86
191.5 1821
192.5 1710.29
193.5 1671.86
194.5 1581.14
195.5 1650
196.5 2225.71
197.5 2041
198.5 1323.71
199.5 949.715
200.5 2003.29
201.5 3344.14
202.5 2940.57
203.5 2663
204.5 1857
205.5 2151.57
206.5 2107.71
207.5 2210.86
208.5 2474.43
209.5 2670.14
210.5 2293.57
211.5 2238.57
212.5 2047.29
213.5 2634
214.5 2001.86
215.5 2078
216.5 2040.29
217.5 1881.29
218.5 1902.71
219.5 2044.29
220.5 2308.29
221.5 2115
222.5 1803.86
223.5 2136
224.5 1679.43
225.5 1648
226.5 1170.43
227.5 1076.57
228.5 958.572
229.5 1379.14
230.5 1557
231.5 1782
232.5 1763
233.5 1878.14
234.5 1812
235.5 1712.86
236.5 1872
237.5 2021.29
238.5 1989.86
239.5 2613.14
240.5 2409.43
241.5 2279.29
242.5 2842.71
243.5 2754
244.5 2483.14
245.5 3195.86
246.5 3043.86
247.5 2638.29
248.5 2116.14
249.5 1970.57
250.5 1464.14
251.5 1720.29
252.5 1220
253.5 1397
254.5 1813.14
255.5 1584.86
256.5 1183.14
257.5 1448.57
258.5 1576.14
259.5 1443.14
260.5 1174.86
261.5 1679
262.5 1171.29
263.5 1662.71
264.5 1641.29
265.5 1460.57
266.5 1479.57
267.5 1607.14
268.5 1730
269.5 1550.57
270.5 2122
271.5 1964
272.5 1618.43
273.5 1812.86
274.5 2149.29
275.5 1792.57
276.5 2002.14
277.5 1806.14
278.5 2420.29
279.5 2347
280.5 1805.86
281.5 1648.57
282.5 1292.43
283.5 1164.29
284.5 1255.14
285.5 1600.71
286.5 1519.43
287.5 1697.86
288.5 1517.86
289.5 1753.71
290.5 1910.57
291.5 1781.71
292.5 2149.43
293.5 2088.29
294.5 1925.57
295.5 1953.86
296.5 1704.57
297.5 1178.14
298.5 1414.43
299.5 1387.14
300.5 1552.71
301.5 1413
302.5 1763.71
303.5 1742
304.5 1379.86
305.5 1481.71
306.5 1551.29
307.5 1674.29
308.5 1812.14
309.5 1766.29
310.5 1342
311.5 1563
312.5 1400.71
313.5 1458.57
314.5 1188.86
315.5 1597.57
316.5 1144.71
317.5 1364
318.5 1327.14
319.5 1155.86
320.5 1500.57
321.5 1289.14
322.5 1479.14
323.5 1398.29
324.5 1427.57
325.5 1477.71
326.5 1811.57
327.5 1911
328.5 1773.57
329.5 1406
330.5 1253
331.5 1553.14
332.5 1317.71
333.5 1692.71
334.5 1448.86
335.5 1620.57
336.5 1214.57
337.5 1306.43
338.5 1542.86
339.5 1508.71
340.5 1320
341.5 1279.57
342.5 1211.57
343.5 1317.29
344.5 1010.57
345.5 1345.29
346.5 1168
347.5 995
348.5 1272
349.5 1315.71
350.5 1532.14
351.5 1105.43
352.5 1212.14
353.5 1057.86
354.5 1179.43
355.5 1109.86
356.5 1209.86
357.5 1399.14
358.5 2038.86
359.5 1573.43
360.5 1662.43
361.5 1399.29
362.5 1439.71
363.5 1340.14
364.5 1443.86
365.5 1431.86
366.5 1558.71
367.5 1312.57
368.5 1616.86
369.5 1711.43
370.5 1793.43
371.5 1945.29
372.5 1916.71
373.5 1702.43
374.5 1387.71
375.5 1348
376.5 1146
377.5 1315.14
378.5 1162.14
379.5 857.143
380.5 1144.86
381.5 1125.43
382.5 1182.43
383.5 1236.43
384.5 1060
385.5 1055
386.5 1284.14
387.5 1146.71
388.5 1485.14
389.5 1139.43
390.5 1413.86
391.5 1068.86
392.5 1101.86
393.5 392.572
394.5 111.714
395.5 311.857
396.5 596.857
397.5 404
398.5 1100
399.5 1133.86
400.5 1066.71
401.5 1072.29
402.5 1831.57
403.5 3663
404.5 2922.71
405.5 1564.71
406.5 1588
407.5 1788.29
408.5 1714.57
409.5 1675.57
410.5 1990
411.5 1730.86
412.5 1797.86
413.5 1957.71
414.5 2024.14
415.5 1796.57
416.5 1329.57
417.5 1079.29
418.5 907.286
419.5 617.286
420.5 1044.14
421.5 1196.71
422.5 1219
423.5 1349.29
424.5 915.857
425.5 790.572
426.5 936.857
427.5 1012
428.5 1034.43
429.5 1309.43
430.5 1153.57
431.5 989.714
432.5 1007.86
433.5 1042
434.5 1122.14
435.5 1297.57
436.5 1230.86
437.5 1324.29
438.5 1038.57
439.5 1149.14
440.5 1372.57
441.5 1493.57
442.5 1519.29
443.5 1403.43
444.5 1505.57
445.5 1466
446.5 1290.71
447.5 1393.29
448.5 1107
449.5 1105.57
450.5 1128.57
451.5 1086.43
452.5 1073
453.5 1141.29
454.5 1159.57
455.5 1237.71
456.5 1621.43
457.5 2441.14
458.5 1645.86
459.5 1149.57
460.5 991.286
461.5 946.572
462.5 751.857
463.5 474
464.5 -48.2856
465.5 -466.714
466.5 -765.571
467.5 -96.9999
468.5 374.572
469.5 939.714
470.5 924.572
471.5 1026.57
472.5 1160
473.5 1245.86
474.5 1202.86
475.5 1313.57
476.5 1429.14
477.5 1430
478.5 2092.86
479.5 2267.43
480.5 2695.43
481.5 2845.86
482.5 2592.29
483.5 2379.86
484.5 2467.71
485.5 2307.43
486.5 1665.29
487.5 1220.57
488.5 235.857
489.5 251.857
490.5 103
491.5 536.286
492.5 910
493.5 971.857
494.5 1016
495.5 1141.57
496.5 1172
497.5 774.857
498.5 1151.29
499.5 1244.29
500.5 833.429
501.5 1132.43
502.5 1003.71
503.5 986.857
504.5 837.286
505.5 1128.43
506.5 690.286
507.5 1463.71
508.5 2309
509.5 3533.71
510.5 4127.57
511.5 4906
512.5 3744.14
513.5 1903.86
514.5 1319
515.5 907.857
516.5 923.429
517.5 1162.14
518.5 1367.14
519.5 1216
520.5 1204.43
521.5 1232.43
522.5 1082.43
523.5 1047.43
524.5 1038.86
525.5 1207.57
526.5 1159.43
527.5 924
528.5 913.714
529.5 904.857
530.5 1201.57
531.5 612.572
532.5 923.572
533.5 898.572
534.5 812.714
535.5 880.714
536.5 948.429
537.5 1010.29
538.5 818
539.5 940.429
540.5 845.286
541.5 1017.57
542.5 984.143
543.5 893.714
544.5 790
545.5 971.572
546.5 1129.14
547.5 1123.29
548.5 1142.71
549.5 910.286
550.5 876.286
551.5 935.429
552.5 924.714
553.5 1019.86
554.5 840.572
555.5 1018.57
556.5 1224
557.5 948.857
558.5 849.572
559.5 993.143
560.5 1068.57
561.5 918.143
562.5 1170.29
563.5 869.714
564.5 959.286
565.5 1188.86
566.5 885.286
567.5 983
568.5 1013.29
569.5 1023.14
570.5 1399.14
571.5 802.143
572.5 1038.86
573.5 1055.14
574.5 1033.43
575.5 979.572
576.5 1089.43
577.5 1162.14
578.5 1128.71
579.5 1109.86
580.5 708.572
581.5 643.286
582.5 730.286
583.5 1152.43
584.5 863.429
585.5 910.572
586.5 861.857
587.5 1087.43
588.5 1071.86
589.5 1007
590.5 811.286
591.5 499.429
592.5 736.857
593.5 1004.43
594.5 943.286
595.5 597.572
596.5 522.572
597.5 338.714
598.5 182
599.5 -142.714
600.5 -60.9999
601.5 -37.5713
602.5 696.286
603.5 749
604.5 1307.29
605.5 1457.57
606.5 1333.43
607.5 958.714
608.5 920.572
609.5 880
610.5 1176.43
611.5 1347.71
612.5 1539.71
613.5 1571
614.5 1627.29
615.5 1594.29
616.5 2056.43
617.5 1805.43
618.5 2100.71
619.5 1760.57
620.5 1191.14
621.5 804.857
622.5 223.286
623.5 258.286
624.5 156.572
625.5 786.572
626.5 2593
627.5 9071
628.5 15892.1
629.5 10731.9
630.5 3645.14
631.5 1510.14
632.5 1062.14
633.5 821
634.5 798
635.5 686.429
636.5 814.857
637.5 1058.71
638.5 737.572
639.5 1047.43
640.5 761.714
641.5 687.429
642.5 1011.57
643.5 796.286
644.5 764.714
645.5 805.714
646.5 748.429
647.5 792
648.5 1007.86
649.5 926.572
650.5 731.143
651.5 566.143
652.5 737.714
653.5 987.429
654.5 910.429
655.5 428
656.5 885.714
657.5 722.572
658.5 733
659.5 893.857
660.5 942.857
661.5 682.572
662.5 845.714
663.5 752.429
664.5 358.143
665.5 335.857
666.5 861.286
667.5 1051.14
668.5 743.857
669.5 782.857
670.5 826.572
671.5 773.143
672.5 922.857
673.5 762.571
674.5 793.714
675.5 948.429
676.5 801.857
677.5 1002.71
678.5 710.857
679.5 821.143
680.5 995.143
681.5 1377.86
682.5 1329
683.5 1296.86
684.5 854.857
685.5 824.143
686.5 890
687.5 718.572
688.5 683.714
689.5 733.286
690.5 752.143
691.5 870.857
692.5 714.714
693.5 682.143
694.5 714.429
695.5 857.429
696.5 903.429
697.5 764.143
698.5 697.143
699.5 740
700.5 932.286
701.5 676.286
702.5 1004.43
703.5 837.857
704.5 943
705.5 941.429
706.5 850.429
707.5 899.857
708.5 891.571
709.5 895.143
710.5 1043.86
711.5 1192.43
712.5 938.857
713.5 586.286
714.5 719.714
715.5 667.857
716.5 492.286
717.5 875
718.5 685.857
719.5 585.429
720.5 778.857
721.5 991
722.5 1197.57
723.5 1145.86
724.5 826.286
725.5 642
726.5 952
727.5 751
728.5 749.429
729.5 650.143
730.5 689.143
731.5 754.571
732.5 700.429
733.5 1029.57
734.5 779.143
735.5 723.286
736.5 786.429
737.5 934.857
738.5 635.572
739.5 786.857
740.5 829.429
741.5 636.857
742.5 731.429
743.5 563.429
744.5 484
745.5 365.857
746.5 471.714
747.5 490.857
748.5 581
749.5 821.429
750.5 855.714
751.5 874.286
752.5 1036.86
753.5 746.571
754.5 969.429
755.5 919.714
756.5 798.714
757.5 1284.43
758.5 1402.14
759.5 3466.86
760.5 8878.71
761.5 9712.57
762.5 4708.29
763.5 1813.43
764.5 1382.29
765.5 1086.86
766.5 846
767.5 854.143
768.5 460.714
769.5 554.143
770.5 605
771.5 545.714
772.5 751.857
773.5 594.571
774.5 696
775.5 648.714
776.5 603
777.5 750
778.5 614.286
779.5 553.143
780.5 717.857
781.5 672
782.5 725.286
783.5 797
784.5 982
785.5 864
786.5 876
787.5 827.572
788.5 982.714
789.5 830.571
790.5 895.143
791.5 940
792.5 855.429
793.5 943.714
794.5 998.571
795.5 669
796.5 915.571
797.5 723
798.5 795.571
799.5 725.857
800.5 682.286
801.5 928
802.5 838.571
803.5 759.714
804.5 824
805.5 775
806.5 700
807.5 498.714
808.5 747.143
809.5 825
810.5 843
811.5 597.286
812.5 958.857
813.5 811.429
814.5 768.857
815.5 651.286
816.5 906.429
817.5 736.571
818.5 556.429
819.5 835.143
820.5 867
821.5 741.286
822.5 894
823.5 863.286
824.5 689.143
825.5 640.286
826.5 727.714
827.5 916
828.5 1028.14
829.5 1142.57
830.5 855
831.5 924.857
832.5 809.857
833.5 896
834.5 876.714
835.5 693.143
836.5 795.714
837.5 717.143
838.5 604.714
839.5 696.571
840.5 727.143
841.5 565.143
842.5 725.714
843.5 904.429
844.5 911
845.5 1032.57
846.5 697.286
847.5 582.286
848.5 862.429
849.5 577.857
850.5 532
851.5 610
852.5 585.857
853.5 637.714
854.5 549.286
855.5 738.429
856.5 896
857.5 924.143
858.5 1013.71
859.5 835.429
860.5 590.286
861.5 620.857
862.5 902.143
863.5 869
864.5 927.286
865.5 1276
866.5 1444.57
867.5 4363.29
868.5 10871.3
869.5 13355.9
870.5 7338.57
871.5 2694.86
872.5 1258
873.5 816.714
874.5 935.143
875.5 1134.14
876.5 1347.14
877.5 1022.71
878.5 1000.43
879.5 837.429
880.5 769.857
881.5 875.429
882.5 977.429
883.5 958.714
884.5 744
885.5 845.714
886.5 748.572
887.5 1031
888.5 837.572
889.5 837.286
890.5 920.143
891.5 839.572
892.5 563
893.5 747.286
894.5 912.572
895.5 1090.71
896.5 577.286
897.5 768.572
898.5 957.857
899.5 713.857
900.5 919.857
901.5 986
902.5 1063
903.5 1035.14
904.5 860.572
905.5 609.143
906.5 962.572
907.5 739.714
908.5 975.429
909.5 766
910.5 899.572
911.5 788.857
912.5 732.286
913.5 707.857
914.5 801.857
915.5 1041.57
916.5 805
917.5 785.143
918.5 657.572
919.5 1081
920.5 935.286
921.5 747.857
922.5 972.857
923.5 1085.71
924.5 810
925.5 1055.86
926.5 1003
927.5 858.143
928.5 813.429
929.5 918.429
930.5 750
931.5 914.429
932.5 948.429
933.5 887.429
934.5 691.714
935.5 720.143
936.5 1085
937.5 1103.29
938.5 1068.29
939.5 980.286
940.5 919.429
941.5 701.143
942.5 68.0001
943.5 -506.286
944.5 -569.143
945.5 144.857
946.5 761.286
947.5 735.429
948.5 778.714
949.5 968
950.5 776
951.5 835.857
952.5 715.429
953.5 712.714
954.5 851.286
955.5 482
956.5 864.286
957.5 842.571
958.5 621.857
959.5 729.571
960.5 760.286
961.5 560
962.5 408.143
963.5 417.714
964.5 660.429
965.5 1093.43
966.5 953.857
967.5 1065.43
968.5 721
969.5 543.571
970.5 521.857
971.5 704.571
972.5 778.857
973.5 891.286
974.5 981.857
975.5 969.571
976.5 641.857
977.5 951.143
978.5 715
979.5 742.286
980.5 710.571
981.5 684.714
982.5 722.714
983.5 357.143
984.5 554.571
985.5 750.714
986.5 472.571
987.5 640.143
988.5 820.571
989.5 445.429
990.5 668
991.5 453.714
992.5 447.286
993.5 545.857
994.5 619.714
995.5 691.429
996.5 625.286
997.5 650.143
998.5 793.857
999.5 1822.14
1000.5 5371.71
1001.5 10629.1
1002.5 9970.71
1003.5 4149.29
1004.5 1484.43
1005.5 774
1006.5 666.429
1007.5 582.857
1008.5 525.571
1009.5 461
1010.5 608.286
1011.5 572.714
1012.5 617
1013.5 548.571
1014.5 573.143
1015.5 602.714
1016.5 514
1017.5 545.857
1018.5 532
1019.5 467.571
1020.5 573.857
1021.5 477.143
1022.5 292.857
1023.5 415.857
1024.5 65.5716
1025.5 403.857
1026.5 333.143
1027.5 524
1028.5 539.143
1029.5 529.571
1030.5 298.143
1031.5 654
1032.5 416.714
1033.5 457.429
1034.5 508.857
1035.5 618.571
1036.5 426.714
1037.5 548.143
1038.5 513.714
1039.5 402.571
1040.5 581
1041.5 657
1042.5 502.571
1043.5 342.714
1044.5 479.286
1045.5 392.714
1046.5 479.571
1047.5 453.857
1048.5 373.429
1049.5 408.286
1050.5 651.571
1051.5 564.571
1052.5 442.714
1053.5 303.571
1054.5 508.143
1055.5 417.143
1056.5 623.429
1057.5 402
1058.5 527.714
1059.5 414.857
1060.5 530.429
1061.5 541.143
1062.5 1061.57
1063.5 1870.86
1064.5 1744.86
1065.5 1128.86
1066.5 564.429
1067.5 598.714
1068.5 626.286
1069.5 554.286
1070.5 566.143
1071.5 718.143
1072.5 965.572
1073.5 1640.29
1074.5 1930.57
1075.5 1401.43
1076.5 685
1077.5 436.857
1078.5 364.857
1079.5 447.857
1080.5 456.286
1081.5 496.143
1082.5 411.429
1083.5 437
1084.5 537.143
1085.5 320
1086.5 435
1087.5 314.857
1088.5 401.571
1089.5 256
1090.5 223.143
1091.5 444.429
1092.5 189
1093.5 264.571
1094.5 398.714
1095.5 429.143
1096.5 518
1097.5 449.143
1098.5 507.286
1099.5 334.571
1100.5 390.714
1101.5 550
1102.5 358.429
1103.5 403.429
1104.5 393.143
1105.5 214.429
1106.5 -162.143
1107.5 -241.857
1108.5 29.4286
1109.5 205.857
1110.5 424.143
1111.5 400.857
1112.5 337
1113.5 324.286
1114.5 426.143
1115.5 274.571
1116.5 180.286
1117.5 122.714
1118.5 475.571
1119.5 360
1120.5 316.429
1121.5 506.571
1122.5 667
1123.5 2151
1124.5 8231
1125.5 19486
1126.5 21234.7
1127.5 10073
1128.5 2790.86
1129.5 985.286
1130.5 665.857
1131.5 547.143
1132.5 560.714
1133.5 482.714
1134.5 531.286
1135.5 570.286
1136.5 483.143
1137.5 320
1138.5 243.429
1139.5 200.143
1140.5 91.2857
1141.5 163.714
1142.5 337.571
1143.5 316.286
1144.5 468.429
1145.5 494.143
1146.5 398.857
1147.5 260
1148.5 442.286
1149.5 286.429
1150.5 296.857
1151.5 296.571
1152.5 371.571
1153.5 1165.57
1154.5 4098.29
1155.5 14542.1
1156.5 29885.1
1157.5 31593.6
1158.5 13233.4
1159.5 2754.14
1160.5 603.857
1161.5 487.714
1162.5 343.571
1163.5 325.571
1164.5 309.286
1165.5 221.857
1166.5 239.714
1167.5 268.429
1168.5 206.286
1169.5 170
1170.5 206.857
1171.5 246.714
1172.5 287.857
1173.5 314
1174.5 375
1175.5 336.857
1176.5 431
1177.5 246.286
1178.5 352.143
1179.5 438.143
1180.5 415
1181.5 275.857
1182.5 577.143
1183.5 425.429
1184.5 218
1185.5 -30.5714
1186.5 -578.714
1187.5 -842.286
1188.5 -879.714
1189.5 -874.714
1190.5 -668.429
1191.5 -667.286
1192.5 -217
1193.5 126.429
1194.5 298.571
1195.5 636.857
1196.5 844
1197.5 908.143
1198.5 536.143
1199.5 590.429
1200.5 589
1201.5 764.571
1202.5 1069.57
1203.5 1238.14
1204.5 1416.43
1205.5 1491.43
1206.5 1582.43
1207.5 1543.43
1208.5 1205.14
1209.5 999.286
1210.5 539.857
1211.5 2.4286
1212.5 -432.143
1213.5 -459.571
1214.5 -355.143
1215.5 -179.571
1216.5 85.1429
1217.5 95.5715
1218.5 330.286
1219.5 252
1220.5 340.429
1221.5 368.571
1222.5 407.286
1223.5 658.286
1224.5 1420.29
1225.5 3207.71
1226.5 3056.71
1227.5 1551
1228.5 843.857
1229.5 742.857
1230.5 531.143
1231.5 374.714
1232.5 320
1233.5 271.714
1234.5 308.286
1235.5 247.714
1236.5 325.429
1237.5 239.714
1238.5 354.571
1239.5 342.143
1240.5 260
1241.5 354.857
1242.5 361.857
1243.5 276.143
1244.5 298
1245.5 325.714
1246.5 243.857
1247.5 168.714
1248.5 204.857
1249.5 276.857
1250.5 296.286
1251.5 170.714
1252.5 216.857
1253.5 369.714
1254.5 381.571
1255.5 344.286
1256.5 339.571
1257.5 297.429
1258.5 365.714
1259.5 253.571
1260.5 362.429
1261.5 377.429
1262.5 280.857
1263.5 289.143
1264.5 172.429
1265.5 445.429
1266.5 367.571
1267.5 384.571
1268.5 349
1269.5 345.857
1270.5 259
1271.5 279.571
1272.5 320.714
1273.5 307.571
1274.5 293
1275.5 159.571
1276.5 195.857
1277.5 249.429
1278.5 338
1279.5 453
1280.5 381.143
1281.5 317.571
1282.5 333.857
1283.5 198.429
1284.5 420.857
1285.5 320.143
1286.5 342.286
1287.5 263.571
1288.5 253.429
1289.5 176.286
1290.5 182
1291.5 254.286
1292.5 399.571
1293.5 302.571
1294.5 322.429
1295.5 278.429
1296.5 257.571
1297.5 260.143
1298.5 271.286
1299.5 117.143
1300.5 305.143
1301.5 294.857
1302.5 379.286
1303.5 319.571
1304.5 346.286
1305.5 285.143
1306.5 308.286
1307.5 337.429
1308.5 151.429
1309.5 287.857
1310.5 109.429
1311.5 217.429
1312.5 220.143
1313.5 301.857
1314.5 321.143
1315.5 247.571
1316.5 245.429
1317.5 326.571
1318.5 146.571
1319.5 258.286
1320.5 326.143
1321.5 300.286
1322.5 227.714
1323.5 240.429
1324.5 311
1325.5 273.286
1326.5 242.429
1327.5 242.714
1328.5 161.714
1329.5 235.143
1330.5 214.143
1331.5 313.857
1332.5 374.429
1333.5 197.714
1334.5 232.429
1335.5 316
1336.5 268.571
1337.5 207.143
1338.5 246.857
1339.5 255
1340.5 237.857
1341.5 314.286
1342.5 201.143
1343.5 213.286
1344.5 177.286
1345.5 388.286
1346.5 235.714
1347.5 182
1348.5 87.2857
1349.5 225.571
1350.5 139.571
1351.5 227.714
1352.5 272
1353.5 179.857
1354.5 330
1355.5 271.143
1356.5 252.857
1357.5 231.857
1358.5 331.143
1359.5 228.286
1360.5 203.143
1361.5 266.571
1362.5 306.714
1363.5 206.429
1364.5 345.286
1365.5 323.714
1366.5 322.571
1367.5 227.714
1368.5 396.143
1369.5 275.571
1370.5 178.429
1371.5 215.571
1372.5 310.429
1373.5 379
1374.5 260
1375.5 346.143
1376.5 327
1377.5 232
1378.5 227.571
1379.5 290
1380.5 178.714
1381.5 195.286
1382.5 351.143
1383.5 13
1384.5 180.714
1385.5 240.143
1386.5 113.571
1387.5 171
1388.5 328.571
1389.5 278.143
1390.5 285.429
1391.5 141.286
1392.5 214
1393.5 283.571
1394.5 320.143
1395.5 351.857
1396.5 414
1397.5 213.143
1398.5 234.714
1399.5 165
1400.5 196.857
1401.5 227.857
1402.5 167.857
1403.5 200.714
1404.5 196.857
1405.5 225.857
1406.5 258.571
1407.5 266.429
1408.5 314.143
1409.5 370.429
1410.5 308.429
1411.5 426
1412.5 806.857
1413.5 2048.29
1414.5 2319.71
1415.5 1565.57
1416.5 510.429
1417.5 338.714
1418.5 69.8572
1419.5 333
1420.5 353
1421.5 338.571
1422.5 125.571
1423.5 224.714
1424.5 291.286
1425.5 234.143
1426.5 298.857
1427.5 652.571
1428.5 597.286
1429.5 422.857
1430.5 170.429
1431.5 215
1432.5 176.286
1433.5 85.1429
1434.5 282.429
1435.5 190.857
1436.5 228.714
1437.5 239.286
1438.5 302.143
1439.5 266.143
1440.5 224.857
1441.5 192.143
1442.5 270.714
1443.5 125.143
1444.5 245.857
1445.5 160.714
1446.5 204
1447.5 263.857
