# EGG_ProjY_E1541.0(6.0)_B1531.5(2.5)_B1554.0(4.0)
# X axis : Energy (keV) [Y axis]
# Y axis : Counts/1 keV
# N Bins : 12000
# X Min : 0
# X Max : 12000
# X value at the center of the bins
0.5 0
1.5 0
2.5 0
3.5 0
4.5 0
5.5 30
6.5 18.8462
7.5 18.0769
8.5 36.0769
9.5 7.46154
10.5 18.5385
11.5 55.1538
12.5 55.1538
13.5 37.6154
14.5 37.6923
15.5 45.6154
16.5 37.0769
17.5 75.0769
18.5 206
19.5 250.385
20.5 332.385
21.5 311.462
22.5 429.462
23.5 604.769
24.5 539.385
25.5 607.231
26.5 970.385
27.5 987.769
28.5 1008.15
29.5 1072.23
30.5 1076
31.5 1307.15
32.5 1431.85
33.5 1347
34.5 1257.54
35.5 1375.77
36.5 1561.92
37.5 1443.69
38.5 1463.92
39.5 1773.54
40.5 1455
41.5 1313.31
42.5 1481.62
43.5 1550.46
44.5 1365.23
45.5 1716.08
46.5 1700.38
47.5 1648.38
48.5 1316.62
49.5 1630.92
50.5 1672.46
51.5 1761
52.5 1661.46
53.5 1841.31
54.5 1786.31
55.5 1953.92
56.5 1883.38
57.5 2384.31
58.5 2759.23
59.5 2976.92
60.5 2315.08
61.5 1741.62
62.5 1838.38
63.5 1693.46
64.5 1800.31
65.5 2076.69
66.5 2156.46
67.5 2408.92
68.5 2336
69.5 2189.08
70.5 1999.15
71.5 2145
72.5 1991.54
73.5 2343.77
74.5 3245.38
75.5 3403.85
76.5 3667.46
77.5 4517.15
78.5 2684.31
79.5 1632.62
80.5 1721.77
81.5 1608
82.5 1704.62
83.5 1657.62
84.5 1913.77
85.5 2113.46
86.5 2672.46
87.5 3519.46
88.5 3049.85
89.5 2752.23
90.5 2577
91.5 2095.23
92.5 2388.46
93.5 2208.38
94.5 2401.15
95.5 2280.77
96.5 2361.31
97.5 2420.08
98.5 2275.31
99.5 1946.77
100.5 2027.85
101.5 1941.77
102.5 1891.92
103.5 2025.92
104.5 1860.69
105.5 2298.69
106.5 2260
107.5 2063.85
108.5 2282.23
109.5 1939.54
110.5 2029.92
111.5 2480.38
112.5 2325.85
113.5 2171.69
114.5 2095.77
115.5 2101.92
116.5 2216.15
117.5 2194.85
118.5 2179.08
119.5 2310.38
120.5 2440.92
121.5 2373.62
122.5 2480.38
123.5 2562.54
124.5 2358.69
125.5 2192.46
126.5 2593.38
127.5 2601.38
128.5 2610.62
129.5 2510.46
130.5 2414.15
131.5 2241.69
132.5 2331.77
133.5 2631.23
134.5 2376.92
135.5 2621
136.5 2576.77
137.5 2531.92
138.5 2157.08
139.5 2824.23
140.5 2753.54
141.5 2151.54
142.5 2667.38
143.5 2741.08
144.5 2736
145.5 2847.31
146.5 2476.31
147.5 2505.38
148.5 2462.15
149.5 2645
150.5 2736.46
151.5 2517.85
152.5 2330.23
153.5 2312.92
154.5 2392
155.5 2343.31
156.5 2100.31
157.5 2272.69
158.5 2190.23
159.5 1985.38
160.5 2335.62
161.5 2563.38
162.5 2567.31
163.5 2327.92
164.5 2735
165.5 3040.15
166.5 3012.62
167.5 2698.69
168.5 3082.77
169.5 2881.08
170.5 2842.85
171.5 3022.08
172.5 3213.92
173.5 4185.08
174.5 5855.54
175.5 4278.46
176.5 3065.08
177.5 2831
178.5 2519.62
179.5 2792.15
180.5 2646.46
181.5 2088.23
182.5 1737
183.5 2763.54
184.5 3163.92
185.5 3691.38
186.5 3523.77
187.5 3272.38
188.5 3381.08
189.5 3133.54
190.5 2814.38
191.5 2974
192.5 2567.15
193.5 2489.54
194.5 2568.69
195.5 2310.85
196.5 2460.62
197.5 2688
198.5 2983.54
199.5 3293.85
200.5 3108.46
201.5 3014.08
202.5 2954.92
203.5 3165.08
204.5 3279.46
205.5 3238.38
206.5 2957.15
207.5 2994.62
208.5 2837.77
209.5 2806
210.5 2909.92
211.5 2910.77
212.5 3275
213.5 3533.77
214.5 3016.23
215.5 3240.54
216.5 2966.85
217.5 2913.23
218.5 2508.54
219.5 2738.54
220.5 1966.92
221.5 2031.77
222.5 2194.54
223.5 1937.31
224.5 1883.77
225.5 1952.92
226.5 2310.15
227.5 2466.54
228.5 3112.08
229.5 3585.15
230.5 3526
231.5 4062.85
232.5 4560.46
233.5 4571.46
234.5 4783.92
235.5 4631.23
236.5 4518.23
237.5 4342.69
238.5 3987.08
239.5 3999.85
240.5 3924.08
241.5 3815.15
242.5 3483.69
243.5 3360.92
244.5 2469.31
245.5 2418.69
246.5 1914
247.5 1992
248.5 2019.31
249.5 2353.15
250.5 2430.62
251.5 2692.46
252.5 3100.54
253.5 2925.85
254.5 2624.08
255.5 2128.38
256.5 2297.77
257.5 2002.62
258.5 2457.46
259.5 2585.85
260.5 2767.85
261.5 2769.85
262.5 3234.15
263.5 3194
264.5 2919.15
265.5 2881.38
266.5 2915.23
267.5 2918.38
268.5 2919.54
269.5 2858.77
270.5 2765.38
271.5 2659
272.5 2649.15
273.5 2618.54
274.5 2584.62
275.5 2639.77
276.5 2376.15
277.5 2387.54
278.5 2172.54
279.5 2516.77
280.5 2701.69
281.5 2305.15
282.5 2436.38
283.5 2298.85
284.5 2311.77
285.5 2296.92
286.5 2304.23
287.5 2139
288.5 2201.62
289.5 2143.23
290.5 2094.69
291.5 2318.77
292.5 2158.08
293.5 2234.62
294.5 2401.77
295.5 2676.69
296.5 2306.69
297.5 2631.85
298.5 2437.77
299.5 2378.62
300.5 2614.38
301.5 2410.62
302.5 2345.62
303.5 2321.15
304.5 2311.92
305.5 2519.62
306.5 2226.15
307.5 2279.38
308.5 2227.23
309.5 2054.38
310.5 2222.62
311.5 1797.85
312.5 2037.23
313.5 1741.69
314.5 1670.15
315.5 1649.69
316.5 1035.92
317.5 1103.15
318.5 1105.38
319.5 936.308
320.5 1234.92
321.5 1380.85
322.5 1844.62
323.5 2090.46
324.5 2702.08
325.5 2572.38
326.5 3258.69
327.5 3025.77
328.5 2315.23
329.5 1599.85
330.5 1464.62
331.5 1305.77
332.5 899.077
333.5 947.538
334.5 1354.08
335.5 1359.69
336.5 1798
337.5 1931.38
338.5 2123.77
339.5 2346
340.5 2977.46
341.5 3467.38
342.5 3524.69
343.5 3988.85
344.5 4333.62
345.5 4165.08
346.5 4655.54
347.5 4332
348.5 4193.31
349.5 4073.69
350.5 3725.77
351.5 2825
352.5 1777
353.5 698.692
354.5 212.231
355.5 246.923
356.5 90
357.5 604.077
358.5 1242.77
359.5 1659.23
360.5 1861.77
361.5 2122.54
362.5 2085.62
363.5 2058.54
364.5 1932.54
365.5 2016.54
366.5 1972.85
367.5 1615
368.5 2229.92
369.5 1973.38
370.5 1950.62
371.5 1817.54
372.5 1998.92
373.5 2112
374.5 2083.77
375.5 2100.31
376.5 2121.31
377.5 1976.23
378.5 1817.62
379.5 1725.46
380.5 1809.62
381.5 1750.23
382.5 1552.69
383.5 1800.46
384.5 1289.54
385.5 1481.31
386.5 1071.38
387.5 1160.54
388.5 1310.15
389.5 1108.46
390.5 1193.92
391.5 1486.69
392.5 1560.31
393.5 1750.15
394.5 2068.31
395.5 2025
396.5 2276.08
397.5 2496.38
398.5 2427.38
399.5 2648.46
400.5 2580.85
401.5 2805.85
402.5 2619.38
403.5 2995.31
404.5 3329.38
405.5 2655.23
406.5 2278
407.5 1999.46
408.5 1498.92
409.5 1486.31
410.5 1567.23
411.5 1522.38
412.5 1631.46
413.5 2037.15
414.5 2048.23
415.5 2093.85
416.5 1922.69
417.5 1802.85
418.5 1747.23
419.5 1936.77
420.5 1733.62
421.5 1851.23
422.5 2189.38
423.5 1924.38
424.5 1906.85
425.5 1409
426.5 1470.69
427.5 1626.46
428.5 1566.46
429.5 1312.62
430.5 1506.85
431.5 1546.54
432.5 1600.62
433.5 1875.62
434.5 1947.08
435.5 1515.77
436.5 1566.08
437.5 1527
438.5 1632.85
439.5 1669
440.5 1658.15
441.5 1600.08
442.5 1618.46
443.5 1711.85
444.5 1758.08
445.5 1956
446.5 1769.46
447.5 1854
448.5 1810.31
449.5 1864.23
450.5 1933.62
451.5 1882.38
452.5 1906.15
453.5 1858.85
454.5 2160.69
455.5 1939.31
456.5 2112.08
457.5 2096.23
458.5 1961.77
459.5 1851.77
460.5 1620.92
461.5 1752.77
462.5 1958.08
463.5 2135
464.5 1891.46
465.5 1662.15
466.5 1935.08
467.5 1713.62
468.5 1765.69
469.5 1768.77
470.5 1820.69
471.5 1946.23
472.5 1928.46
473.5 1953.92
474.5 1906.92
475.5 1650.85
476.5 1669.69
477.5 1732.38
478.5 1773.92
479.5 1716.85
480.5 1745.38
481.5 1752.23
482.5 1857.38
483.5 1762
484.5 1962.38
485.5 1814.08
486.5 1648.85
487.5 1621.85
488.5 1716.77
489.5 1672.46
490.5 1683.69
491.5 1600.23
492.5 1511.46
493.5 1775
494.5 1752.23
495.5 1449.77
496.5 1573.31
497.5 1352.85
498.5 1276.69
499.5 923.308
500.5 1069.92
501.5 1359.69
502.5 1505.92
503.5 1642.08
504.5 1750.62
505.5 1791.54
506.5 2143.77
507.5 2666.92
508.5 3936.77
509.5 6687.38
510.5 9828.85
511.5 9606.85
512.5 6302.54
513.5 3502
514.5 2343.38
515.5 1709
516.5 1590.23
517.5 1383.46
518.5 1267
519.5 1345.08
520.5 1369.62
521.5 1297.92
522.5 1333
523.5 1336.54
524.5 1384.46
525.5 1441.31
526.5 1538.77
527.5 1390.54
528.5 1399.54
529.5 1390.08
530.5 1355.15
531.5 1409.77
532.5 1289.31
533.5 1281.69
534.5 1369.77
535.5 1377.38
536.5 1437.15
537.5 1487.92
538.5 1369.38
539.5 1303.69
540.5 1469.31
541.5 1370.46
542.5 1542.85
543.5 1646.85
544.5 1403
545.5 1527.23
546.5 1511.15
547.5 1668.85
548.5 1483.31
549.5 1545.77
550.5 1706.46
551.5 1493
552.5 1563.08
553.5 1444.54
554.5 1662.38
555.5 1908.15
556.5 1933.23
557.5 1617.23
558.5 1631.54
559.5 1393.85
560.5 1471
561.5 1566.23
562.5 1542.77
563.5 1560.15
564.5 1639.15
565.5 1395.15
566.5 1511.38
567.5 1468.31
568.5 1438.23
569.5 1474.54
570.5 1573.69
571.5 1492.85
572.5 1562.46
573.5 1337
574.5 1466.31
575.5 1366.46
576.5 1382.62
577.5 1414.54
578.5 1263.62
579.5 1260.31
580.5 1586.15
581.5 2641.15
582.5 7722
583.5 12707
584.5 7821.38
585.5 2724.31
586.5 1610.92
587.5 1099.69
588.5 1124.85
589.5 999.154
590.5 1043.23
591.5 810.692
592.5 708.308
593.5 717.769
594.5 436
595.5 464.615
596.5 557.923
597.5 804
598.5 941.385
599.5 955.385
600.5 1307
601.5 1605.08
602.5 1740.62
603.5 1821.15
604.5 2003.85
605.5 2187.62
606.5 1995.62
607.5 1973.15
608.5 1646.46
609.5 1843.31
610.5 2003.38
611.5 1650.54
612.5 1714.38
613.5 1610.31
614.5 1438.08
615.5 1196.77
616.5 883
617.5 750.923
618.5 523.077
619.5 574.308
620.5 746.154
621.5 1052
622.5 1064.92
623.5 1163
624.5 1120.69
625.5 1070.54
626.5 1213.85
627.5 1283.46
628.5 1555
629.5 1379.77
630.5 1095.77
631.5 1153.92
632.5 1065.31
633.5 1203.85
634.5 1221
635.5 1219.23
636.5 1116.85
637.5 1418.69
638.5 1197.23
639.5 1314.62
640.5 1170.15
641.5 1197.69
642.5 1058
643.5 1051.92
644.5 1352.62
645.5 1807.85
646.5 1615.85
647.5 1345.77
648.5 1015.54
649.5 1119.69
650.5 1172.69
651.5 1425.85
652.5 1349.77
653.5 2646
654.5 8962.54
655.5 21109.1
656.5 18959.5
657.5 7287.38
658.5 2526.54
659.5 1403.62
660.5 1257.85
661.5 1332.31
662.5 1347.08
663.5 803.769
664.5 796.615
665.5 75.6923
666.5 -467.923
667.5 -1085.08
668.5 -1225.62
669.5 -1053.92
670.5 -586.538
671.5 -485.615
672.5 243.462
673.5 690.846
674.5 1534.62
675.5 2099.77
676.5 2787.62
677.5 2860.77
678.5 3206.92
679.5 3299.08
680.5 3161.62
681.5 3011.92
682.5 3157.46
683.5 3215.85
684.5 3030.92
685.5 2920.77
686.5 2410.54
687.5 1259.62
688.5 668.385
689.5 -20.0769
690.5 -581.462
691.5 -568.538
692.5 -303.385
693.5 54.1538
694.5 399.385
695.5 637.154
696.5 800.385
697.5 1050
698.5 931.385
699.5 864.308
700.5 1297.38
701.5 1085.77
702.5 1125.08
703.5 1411.54
704.5 1325.62
705.5 1242.92
706.5 995.462
707.5 1046.77
708.5 1099.08
709.5 1067.77
710.5 1163.69
711.5 1031.92
712.5 1064.31
713.5 1006.15
714.5 1027.23
715.5 1131.62
716.5 1033.15
717.5 931.846
718.5 999.154
719.5 970.154
720.5 1123.62
721.5 1061.85
722.5 956.231
723.5 792.846
724.5 906.231
725.5 997.846
726.5 854.692
727.5 1135.92
728.5 963.077
729.5 891
730.5 1040.54
731.5 1003.15
732.5 1035.23
733.5 1082.92
734.5 1098.77
735.5 1007.15
736.5 1022.38
737.5 990
738.5 1118.08
739.5 1005.31
740.5 1077.54
741.5 1026.23
742.5 1044
743.5 1038.77
744.5 1013.15
745.5 1072.69
746.5 1033.92
747.5 1033.08
748.5 949.231
749.5 955.538
750.5 1100.31
751.5 1054.46
752.5 1009.62
753.5 1011
754.5 1100.62
755.5 1027
756.5 1131.15
757.5 1352.31
758.5 2253.92
759.5 8526.62
760.5 24331.6
761.5 27251.1
762.5 12291.1
763.5 3365.31
764.5 1474.31
765.5 1236.08
766.5 1155.62
767.5 883.538
768.5 930.462
769.5 955.231
770.5 1058.15
771.5 922.154
772.5 889.769
773.5 883.769
774.5 1162.62
775.5 986.615
776.5 1135.62
777.5 849
778.5 916.769
779.5 888.154
780.5 1014.77
781.5 928.154
782.5 839.462
783.5 998.308
784.5 990.154
785.5 739.846
786.5 811.615
787.5 1124.92
788.5 962.769
789.5 991.385
790.5 988.692
791.5 918.462
792.5 926.462
793.5 1080.15
794.5 1038.92
795.5 946.538
796.5 904.615
797.5 993.615
798.5 1165.69
799.5 856.308
800.5 986.769
801.5 993.154
802.5 1015
803.5 1144.31
804.5 1191.62
805.5 1346.46
806.5 1822.23
807.5 1746.92
808.5 1334.69
809.5 1132.62
810.5 972.692
811.5 1004.46
812.5 1088.92
813.5 915.769
814.5 1098.08
815.5 1102.62
816.5 973.077
817.5 1160.46
818.5 941.615
819.5 1037.85
820.5 1022.77
821.5 958.923
822.5 1107.46
823.5 1165.54
824.5 1225.62
825.5 1043.46
826.5 987.077
827.5 1206.23
828.5 1090.38
829.5 1092.31
830.5 1017.38
831.5 1138.85
832.5 1050.31
833.5 1099.46
834.5 1010.38
835.5 906.692
836.5 1006.15
837.5 1083.46
838.5 1125.69
839.5 1166.62
840.5 1020.15
841.5 1101
842.5 1047
843.5 1130
844.5 1021.15
845.5 1108
846.5 1238.23
847.5 936.769
848.5 1071.46
849.5 1055.38
850.5 1155.54
851.5 1064.31
852.5 1118.69
853.5 1105.23
854.5 1079.23
855.5 1235.23
856.5 1149.77
857.5 1041.77
858.5 1143
859.5 1092.15
860.5 1088.46
861.5 1228.08
862.5 1093.85
863.5 1080.92
864.5 1181.31
865.5 1163.15
866.5 1286.46
867.5 1222.15
868.5 1279.69
869.5 1312.15
870.5 1527.38
871.5 945.769
872.5 1111.54
873.5 1207.08
874.5 1157.54
875.5 1056.46
876.5 1223.62
877.5 970
878.5 1084.62
879.5 1173.69
880.5 1226.54
881.5 1064.62
882.5 1204.85
883.5 1175.38
884.5 1202.23
885.5 1225.15
886.5 1113.77
887.5 1149.46
888.5 1140.31
889.5 1264
890.5 1247.62
891.5 1388.69
892.5 1216.85
893.5 1335.46
894.5 1227.54
895.5 1233.23
896.5 1343.77
897.5 1315.08
898.5 1239.77
899.5 1311.69
900.5 1471.54
901.5 1203.08
902.5 1202.69
903.5 1311.62
904.5 1331.85
905.5 1568.08
906.5 1242.46
907.5 1346.62
908.5 1364.69
909.5 1335.31
910.5 1267.77
911.5 1403.54
912.5 1450.77
913.5 1439.31
914.5 1446.46
915.5 1196.69
916.5 1205.77
917.5 1451
918.5 1397
919.5 1335.62
920.5 1354.23
921.5 1260.85
922.5 1328.85
923.5 1480.46
924.5 1388.85
925.5 1314.77
926.5 1433.92
927.5 1368.15
928.5 1229.92
929.5 1352.23
930.5 1397.77
931.5 1380.69
932.5 1390.92
933.5 1286
934.5 1500.69
935.5 1203
936.5 1419.85
937.5 1360
938.5 1444.77
939.5 1145.15
940.5 1442.46
941.5 1234.77
942.5 1396.77
943.5 1530.46
944.5 1365.15
945.5 1225.92
946.5 1286.46
947.5 1056.62
948.5 1185.92
949.5 1169.62
950.5 1130.69
951.5 1173.23
952.5 1139.69
953.5 1163.77
954.5 1157.15
955.5 1085.77
956.5 1139.31
957.5 1073.46
958.5 1089.38
959.5 1063.54
960.5 1224.54
961.5 1072.23
962.5 987.692
963.5 1050.92
964.5 1069
965.5 980.231
966.5 927.385
967.5 950.154
968.5 976.385
969.5 964
970.5 950.538
971.5 895.615
972.5 1028.62
973.5 880.615
974.5 974.308
975.5 977
976.5 900.154
977.5 833.077
978.5 950.769
979.5 1004.69
980.5 996.308
981.5 1104.38
982.5 895.615
983.5 1036.54
984.5 985.231
985.5 907.846
986.5 854.462
987.5 914.846
988.5 1028
989.5 897.154
990.5 1043.54
991.5 888
992.5 876.846
993.5 908.923
994.5 963.769
995.5 999.385
996.5 786.692
997.5 894
998.5 925.385
999.5 956.923
1000.5 1420
1001.5 2057.77
1002.5 2090.23
1003.5 1372.08
1004.5 923.538
1005.5 1060.23
1006.5 829.308
1007.5 887.077
1008.5 856.462
1009.5 971
1010.5 777.923
1011.5 831.154
1012.5 821.462
1013.5 801.846
1014.5 794.615
1015.5 931
1016.5 805.462
1017.5 702.692
1018.5 859.538
1019.5 801.385
1020.5 728.385
1021.5 846.308
1022.5 696.462
1023.5 801.462
1024.5 906.385
1025.5 732.769
1026.5 742.308
1027.5 658.538
1028.5 674.462
1029.5 722.769
1030.5 691.154
1031.5 650
1032.5 688.923
1033.5 713.692
1034.5 710.538
1035.5 643.923
1036.5 716.692
1037.5 792
1038.5 621.538
1039.5 757.846
1040.5 686.615
1041.5 811.154
1042.5 700.923
1043.5 703.231
1044.5 616.385
1045.5 623.154
1046.5 622.538
1047.5 705.692
1048.5 576.538
1049.5 624.615
1050.5 621
1051.5 691.692
1052.5 624.385
1053.5 623.154
1054.5 632.846
1055.5 648.923
1056.5 551.308
1057.5 707.077
1058.5 470.769
1059.5 568
1060.5 560.769
1061.5 535.769
1062.5 738.385
1063.5 618.692
1064.5 676.154
1065.5 569.846
1066.5 741.077
1067.5 599.538
1068.5 657.923
1069.5 684.769
1070.5 635.462
1071.5 1075.77
1072.5 2245.46
1073.5 4550.62
1074.5 5486.08
1075.5 3126.77
1076.5 1146.85
1077.5 705.923
1078.5 635.769
1079.5 563.077
1080.5 588.308
1081.5 637
1082.5 691.538
1083.5 560.769
1084.5 466.385
1085.5 644.231
1086.5 590.692
1087.5 525.846
1088.5 567.538
1089.5 503
1090.5 714.462
1091.5 821.769
1092.5 768.615
1093.5 796.231
1094.5 645.077
1095.5 554.769
1096.5 623.385
1097.5 542.077
1098.5 661
1099.5 625.846
1100.5 576.923
1101.5 605.769
1102.5 653.923
1103.5 627.769
1104.5 435.462
1105.5 607.692
1106.5 589.923
1107.5 630.231
1108.5 637.923
1109.5 589.769
1110.5 624.615
1111.5 692.077
1112.5 585.077
1113.5 487.154
1114.5 556.846
1115.5 600
1116.5 705.769
1117.5 505.538
1118.5 733.154
1119.5 648.154
1120.5 583.615
1121.5 626.308
1122.5 1144.15
1123.5 3391.54
1124.5 10828.8
1125.5 25423.9
1126.5 29039.8
1127.5 12871.2
1128.5 3365.54
1129.5 1075.54
1130.5 688.923
1131.5 640.692
1132.5 538.231
1133.5 535.692
1134.5 582
1135.5 623.538
1136.5 515.769
1137.5 495.769
1138.5 603.846
1139.5 595.154
1140.5 495.462
1141.5 558.615
1142.5 544.923
1143.5 552.692
1144.5 594.769
1145.5 690.538
1146.5 637.231
1147.5 690
1148.5 584.231
1149.5 688.154
1150.5 747.308
1151.5 696.538
1152.5 841.538
1153.5 1933.92
1154.5 7438.62
1155.5 25768
1156.5 56365.2
1157.5 57602.5
1158.5 24096.8
1159.5 5390
1160.5 1305.31
1161.5 635.154
1162.5 540.615
1163.5 416.615
1164.5 341.692
1165.5 565.308
1166.5 499.385
1167.5 424.154
1168.5 494.462
1169.5 402.769
1170.5 437
1171.5 400.538
1172.5 432.769
1173.5 447.231
1174.5 346.538
1175.5 448.615
1176.5 430.154
1177.5 352.538
1178.5 426.692
1179.5 417.538
1180.5 435.692
1181.5 454.923
1182.5 356.308
1183.5 308.692
1184.5 384.538
1185.5 419.769
1186.5 471.308
1187.5 338
1188.5 592.231
1189.5 699.077
1190.5 1204.77
1191.5 1345.69
1192.5 827
1193.5 479.308
1194.5 383.154
1195.5 425.385
1196.5 381.154
1197.5 352.538
1198.5 333.846
1199.5 458.308
1200.5 427.231
1201.5 420.231
1202.5 437.231
1203.5 446.846
1204.5 367.231
1205.5 377.538
1206.5 436.769
1207.5 328.615
1208.5 388.538
1209.5 321.385
1210.5 352.154
1211.5 356.308
1212.5 441.154
1213.5 441.077
1214.5 371.154
1215.5 378.462
1216.5 423.077
1217.5 447.154
1218.5 414
1219.5 378.846
1220.5 346.385
1221.5 379.692
1222.5 361.846
1223.5 361.692
1224.5 368.923
1225.5 420.538
1226.5 365.077
1227.5 399.615
1228.5 339.846
1229.5 459.538
1230.5 296.538
1231.5 344.846
1232.5 400.308
1233.5 350
1234.5 360.231
1235.5 336.615
1236.5 350.923
1237.5 428.462
1238.5 386.308
1239.5 374.154
1240.5 513.385
1241.5 460.615
1242.5 489.308
1243.5 397.462
1244.5 418.462
1245.5 396.846
1246.5 301.308
1247.5 320.692
1248.5 358.154
1249.5 325.846
1250.5 381.077
1251.5 336.692
1252.5 328.154
1253.5 321.846
1254.5 382.308
1255.5 338.692
1256.5 405.231
1257.5 404.615
1258.5 390.077
1259.5 382.077
1260.5 384.538
1261.5 440.231
1262.5 432.538
1263.5 347.231
1264.5 392.692
1265.5 361.692
1266.5 399.923
1267.5 423.385
1268.5 377.923
1269.5 367.462
1270.5 371.692
1271.5 390.615
1272.5 340.308
1273.5 413.385
1274.5 409.615
1275.5 328.538
1276.5 434.692
1277.5 403.769
1278.5 309.154
1279.5 442.846
1280.5 291.308
1281.5 340.385
1282.5 262.692
1283.5 352.385
1284.5 363.308
1285.5 376.385
1286.5 347.385
1287.5 322.769
1288.5 225.769
1289.5 317.538
1290.5 402
1291.5 315.077
1292.5 342.846
1293.5 310
1294.5 332.538
1295.5 298.462
1296.5 305.615
1297.5 274.769
1298.5 435.615
1299.5 320.462
1300.5 314.846
1301.5 284.692
1302.5 312.846
1303.5 296.923
1304.5 271
1305.5 354.769
1306.5 354.692
1307.5 347.538
1308.5 194.769
1309.5 106.231
1310.5 297.385
1311.5 269.154
1312.5 201.615
1313.5 350.846
1314.5 320.769
1315.5 377.846
1316.5 268.385
1317.5 398.538
1318.5 374.462
1319.5 306.615
1320.5 251.308
1321.5 366.923
1322.5 249.923
1323.5 387.154
1324.5 303.231
1325.5 316.692
1326.5 330.769
1327.5 345.846
1328.5 268.231
1329.5 347.231
1330.5 435.154
1331.5 559.769
1332.5 380.692
1333.5 328.154
1334.5 282.462
1335.5 219.462
1336.5 282.077
1337.5 321.231
1338.5 275.462
1339.5 345.231
1340.5 331.615
1341.5 290.692
1342.5 234.462
1343.5 197
1344.5 306.615
1345.5 417.692
1346.5 353.538
1347.5 360.692
1348.5 240.231
1349.5 305
1350.5 401.923
1351.5 489.692
1352.5 667.154
1353.5 588.923
1354.5 403.692
1355.5 329.615
1356.5 353.385
1357.5 331.462
1358.5 296.385
1359.5 266.538
1360.5 316.077
1361.5 223.154
1362.5 318.692
1363.5 367.846
1364.5 334.308
1365.5 233.077
1366.5 284.154
1367.5 180.462
1368.5 311.769
1369.5 301
1370.5 273.538
1371.5 248.231
1372.5 365.154
1373.5 365.692
1374.5 426.692
1375.5 389.538
1376.5 470.923
1377.5 404.846
1378.5 385.077
1379.5 317.385
1380.5 317.769
1381.5 328.308
1382.5 273.923
1383.5 462.923
1384.5 790
1385.5 2392.23
1386.5 6382.77
1387.5 11834.1
1388.5 10337.8
1389.5 4054
1390.5 1102.08
1391.5 456.154
1392.5 265.769
1393.5 301
1394.5 266.846
1395.5 273.154
1396.5 318.308
1397.5 402.231
1398.5 299
1399.5 317.462
1400.5 340
1401.5 431.308
1402.5 357.154
1403.5 368.385
1404.5 295.615
1405.5 374.769
1406.5 283.923
1407.5 351.769
1408.5 358.769
1409.5 375.231
1410.5 289.846
1411.5 323.308
1412.5 265.615
1413.5 260.692
1414.5 190.538
1415.5 275.462
1416.5 191.538
1417.5 261.846
1418.5 264.923
1419.5 249
1420.5 258.923
1421.5 211.154
1422.5 301.769
