# EGG_ProjY_E2845.5(6.5)_B2835.5(1.5)_B2858.0(2.0)
# X axis : Energy (keV) [Y axis]
# Y axis : Counts/1 keV
# N Bins : 12000
# X Min : 0
# X Max : 12000
# X value at the center of the bins
0.5 0
1.5 0
2.5 0
3.5 0
4.5 0
5.5 19.8571
6.5 31.1429
7.5 43
8.5 9.85714
9.5 15
10.5 46.7143
11.5 2.85715
12.5 100.571
13.5 87.7143
14.5 85.7143
15.5 82.1429
16.5 117.857
17.5 183.714
18.5 134.571
19.5 233.857
20.5 307.286
21.5 469.571
22.5 364.429
23.5 592.286
24.5 487.857
25.5 530.429
26.5 746.429
27.5 821
28.5 965.857
29.5 1018.86
30.5 1076.57
31.5 1199.57
32.5 998.857
33.5 1091.86
34.5 1132.86
35.5 1366
36.5 1591.14
37.5 1393.29
38.5 1230.14
39.5 1350.29
40.5 1670.14
41.5 1559
42.5 1520.71
43.5 1610.71
44.5 1552.71
45.5 1668.14
46.5 1670.71
47.5 1658.29
48.5 1767.71
49.5 1771.57
50.5 1643.86
51.5 1678.14
52.5 1864.29
53.5 1758.14
54.5 1693.57
55.5 2037.57
56.5 1954
57.5 1986.43
58.5 2519.57
59.5 2802.29
60.5 2013.14
61.5 2112.29
62.5 1761.14
63.5 1915.86
64.5 1830.14
65.5 1745.14
66.5 2146.71
67.5 2117.86
68.5 2139.29
69.5 1866.71
70.5 1767.57
71.5 1942.57
72.5 1869.14
73.5 2107.14
74.5 3209.29
75.5 3600
76.5 3787.86
77.5 4454
78.5 2666
79.5 1879.71
80.5 1745.86
81.5 1908.86
82.5 1886.57
83.5 1806.57
84.5 1775.43
85.5 1873.29
86.5 2446.29
87.5 2973.43
88.5 2115.43
89.5 2238
90.5 2065.86
91.5 1859.71
92.5 1849.71
93.5 1761.71
94.5 1933.71
95.5 2192.57
96.5 1802.43
97.5 1911
98.5 2084.57
99.5 2164.71
100.5 1986
101.5 2172.29
102.5 2000.71
103.5 1825.86
104.5 2089.43
105.5 2142.71
106.5 2255.86
107.5 2141.71
108.5 1827.14
109.5 1763.43
110.5 1760.29
111.5 1587.71
112.5 1636.71
113.5 2129.14
114.5 2063.14
115.5 2022.86
116.5 2051
117.5 2116.29
118.5 1894.29
119.5 2265.29
120.5 2036.57
121.5 2107.43
122.5 1986.43
123.5 2253.43
124.5 2291.14
125.5 2214.71
126.5 2299
127.5 2530.86
128.5 2238.29
129.5 2612.14
130.5 2439.86
131.5 2483.14
132.5 2124.71
133.5 2621.14
134.5 2282.71
135.5 2258.57
136.5 2417.43
137.5 2447
138.5 2556.57
139.5 2463.86
140.5 2398.29
141.5 2610.71
142.5 2285
143.5 2505
144.5 2181.57
145.5 2103.14
146.5 1894.43
147.5 2144.71
148.5 2277.14
149.5 2633.57
150.5 2639.43
151.5 2631.14
152.5 2661.14
153.5 2578.43
154.5 2806
155.5 2903
156.5 2736.71
157.5 2738.86
158.5 2648.43
159.5 2592.43
160.5 2626.43
161.5 2713.86
162.5 2945.57
163.5 2799.29
164.5 2829
165.5 2737.86
166.5 2368.71
167.5 2515.43
168.5 2554.29
169.5 2180.43
170.5 2179.86
171.5 2542
172.5 2542.14
173.5 3006.43
174.5 3462.86
175.5 2667.29
176.5 2290.57
177.5 2446.86
178.5 1865.86
179.5 1996.43
180.5 2204.71
181.5 2526.14
182.5 2516.14
183.5 2747
184.5 2591.14
185.5 2773.29
186.5 2817.14
187.5 2803.14
188.5 3192
189.5 3038.43
190.5 2905.14
191.5 3034.14
192.5 3003.57
193.5 3108.29
194.5 2756.43
195.5 3021
196.5 2985.57
197.5 2740
198.5 2925.43
199.5 2739.29
200.5 2368.43
201.5 2428.14
202.5 2214.14
203.5 2244.43
204.5 2665.29
205.5 2836.29
206.5 2951.71
207.5 2859
208.5 3135.29
209.5 3154.43
210.5 3273
211.5 3900
212.5 3357.43
213.5 3092.43
214.5 2724.57
215.5 2882
216.5 2856.14
217.5 2986.43
218.5 3192.43
219.5 3312.57
220.5 2903.14
221.5 3050
222.5 3211.29
223.5 3029.57
224.5 3284
225.5 3123.43
226.5 2792.43
227.5 3232.14
228.5 3053.14
229.5 3028.43
230.5 3316.71
231.5 2982.43
232.5 2815.57
233.5 2904.57
234.5 3120.71
235.5 2872.14
236.5 2708.71
237.5 2696.57
238.5 2760.43
239.5 2579.29
240.5 2778
241.5 2396
242.5 2610.14
243.5 2578
244.5 2699.29
245.5 2704.14
246.5 2883.86
247.5 2659.14
248.5 2324.43
249.5 2430.43
250.5 2525.57
251.5 2560.29
252.5 2460.29
253.5 2480.86
254.5 2497.71
255.5 2403.43
256.5 2530.43
257.5 2750.14
258.5 2651
259.5 2620.57
260.5 2565.14
261.5 2786.86
262.5 2779.43
263.5 2363.71
264.5 2602.29
265.5 2686.71
266.5 2814.43
267.5 2558.71
268.5 2709.71
269.5 2638.86
270.5 2218.14
271.5 2653.14
272.5 2543.71
273.5 2637
274.5 2592.14
275.5 2296.71
276.5 2044
277.5 2127.14
278.5 2260.57
279.5 2160
280.5 2014.14
281.5 1994.29
282.5 2091.86
283.5 2238.71
284.5 2252.71
285.5 2137.29
286.5 2203
287.5 2086
288.5 2492
289.5 2287.14
290.5 2412.57
291.5 2278.14
292.5 2185.14
293.5 2225.14
294.5 2175.86
295.5 2179.29
296.5 2150.43
297.5 2154.57
298.5 2249.29
299.5 2233.71
300.5 2341.86
301.5 2073.43
302.5 2255.14
303.5 2250.43
304.5 2189.29
305.5 2097.29
306.5 2304.14
307.5 2287.71
308.5 2146.86
309.5 2331.86
310.5 2085.14
311.5 2141.43
312.5 1975
313.5 2177.43
314.5 2076.86
315.5 2030
316.5 1861.71
317.5 1687.14
318.5 2037.14
319.5 2204.43
320.5 1944.43
321.5 2206.57
322.5 2136.14
323.5 2048.43
324.5 2147.43
325.5 2187.57
326.5 2112.71
327.5 2055.86
328.5 2175.57
329.5 2114
330.5 2212.14
331.5 2267.71
332.5 2276.43
333.5 2103.14
334.5 2324.43
335.5 2181.14
336.5 1994
337.5 1977.43
338.5 1708.43
339.5 1841.43
340.5 1902.57
341.5 1756.86
342.5 1810.57
343.5 1664.57
344.5 1820.14
345.5 1849.57
346.5 1655.57
347.5 1769.14
348.5 1799.57
349.5 1959.71
350.5 1823
351.5 2175.86
352.5 2353
353.5 2055.86
354.5 2241.86
355.5 2145.71
356.5 2267.43
357.5 1830.86
358.5 1924
359.5 1753.57
360.5 1917
361.5 2060.86
362.5 1861.43
363.5 1900.14
364.5 1617.86
365.5 1640.86
366.5 1616
367.5 1798
368.5 1968.86
369.5 1721.57
370.5 1498.57
371.5 1672.43
372.5 1498.14
373.5 1774.57
374.5 1726.57
375.5 1619.57
376.5 1565.43
377.5 1624.29
378.5 1748
379.5 1671.86
380.5 1565.14
381.5 1592.86
382.5 1385.86
383.5 1512.57
384.5 1734.43
385.5 1726.86
386.5 1609.29
387.5 1714.29
388.5 1810
389.5 2010.43
390.5 1863.71
391.5 1871.14
392.5 1893.86
393.5 1953.71
394.5 1857.43
395.5 1789
396.5 2046.43
397.5 1789
398.5 1452.29
399.5 1416
400.5 1709
401.5 1498.29
402.5 1633.43
403.5 1897.14
404.5 1425.43
405.5 1553.29
406.5 1208.29
407.5 1431.29
408.5 1471.14
409.5 1649.71
410.5 1618.71
411.5 1539.43
412.5 1709.29
413.5 1606.29
414.5 1796.86
415.5 1905.71
416.5 1705.71
417.5 1712.43
418.5 1739.71
419.5 1579.29
420.5 1640.43
421.5 1796.57
422.5 1397.86
423.5 1663
424.5 1492.43
425.5 1448.86
426.5 1536.86
427.5 1519
428.5 1201
429.5 1398.14
430.5 1442.29
431.5 1331.43
432.5 1523.29
433.5 1367.43
434.5 1345.86
435.5 1480.57
436.5 1630.86
437.5 1554.14
438.5 1364.43
439.5 1425.43
440.5 1193
441.5 1314.14
442.5 1228
443.5 1368.71
444.5 1189.29
445.5 1259.14
446.5 1405.57
447.5 1399.29
448.5 1512
449.5 1627.71
450.5 1508.86
451.5 1501.57
452.5 1672.14
453.5 1546
454.5 1707.57
455.5 1716.86
456.5 1672
457.5 1713.57
458.5 1593.14
459.5 1488.43
460.5 1543.86
461.5 1399.71
462.5 1127.71
463.5 1291.71
464.5 1328.14
465.5 1324.86
466.5 1297
467.5 1383.86
468.5 1446.71
469.5 1560.86
470.5 1633.86
471.5 1654.43
472.5 1814.29
473.5 1790.43
474.5 1788.29
475.5 1691.86
476.5 1798
477.5 1608
478.5 1602.14
479.5 1588.86
480.5 1510.29
481.5 1637.57
482.5 1730.71
483.5 1621.43
484.5 1452
485.5 1317.71
486.5 1369.29
487.5 1423.14
488.5 1367
489.5 1251.43
490.5 1434.29
491.5 1328.29
492.5 1350.29
493.5 1388.43
494.5 1388.71
495.5 1219.57
496.5 1467.57
497.5 1158.86
498.5 1102.43
499.5 1361
500.5 1357.14
501.5 1347
502.5 1504.86
503.5 1532.29
504.5 1603.57
505.5 1520.57
506.5 2361.29
507.5 3349.43
508.5 5969
509.5 9692.14
510.5 12612.6
511.5 11643.1
512.5 7687.14
513.5 3890.86
514.5 2155.29
515.5 1519.57
516.5 1535.71
517.5 1622.71
518.5 1495.57
519.5 1272.57
520.5 1251.29
521.5 1361.57
522.5 1095.14
523.5 1255.86
524.5 1162.86
525.5 1331.29
526.5 1191
527.5 1207
528.5 1168.29
529.5 1004.57
530.5 1247.57
531.5 1227.43
532.5 1160.71
533.5 1131
534.5 1388.86
535.5 1315.57
536.5 1135.43
537.5 1188.86
538.5 1301.86
539.5 1264.43
540.5 1143.43
541.5 1210.71
542.5 1256
543.5 1217.57
544.5 1419.29
545.5 1199.29
546.5 1087.29
547.5 1074
548.5 1326.14
549.5 1246.71
550.5 1146.71
551.5 1310.71
552.5 1289.14
553.5 1174.86
554.5 1218.43
555.5 1255.14
556.5 1237
557.5 1110.86
558.5 1128.43
559.5 1129.14
560.5 1277.86
561.5 1207.29
562.5 1281
563.5 1159.71
564.5 1182.43
565.5 1138.57
566.5 943.714
567.5 1025.29
568.5 995.857
569.5 966.143
570.5 1006.71
571.5 979
572.5 1185.57
573.5 1394.57
574.5 1337.57
575.5 1558.43
576.5 1552.71
577.5 1468.86
578.5 1329.43
579.5 1336.14
580.5 1208.43
581.5 1431.86
582.5 1619.57
583.5 1368
584.5 1292.86
585.5 1423.86
586.5 1230.71
587.5 1253.14
588.5 1225.86
589.5 1004.86
590.5 735.286
591.5 813.857
592.5 890.143
593.5 1065.86
594.5 1256.14
595.5 1320.43
596.5 1194.43
597.5 1323.57
598.5 1300.29
599.5 1236.86
600.5 1132.57
601.5 1444.57
602.5 1396.57
603.5 1225.57
604.5 1255.29
605.5 1313.43
606.5 1089
607.5 1311.29
608.5 1222.86
609.5 1177.14
610.5 1154.14
611.5 1091.71
612.5 1046.43
613.5 977.857
614.5 1062.71
615.5 1056.57
616.5 1103.14
617.5 1199.29
618.5 1176.57
619.5 1126.57
620.5 1122.43
621.5 1203.71
622.5 1154.29
623.5 1199
624.5 1104.14
625.5 1170.57
626.5 1235
627.5 1378.71
628.5 1805.43
629.5 1642.71
630.5 1259.14
631.5 940.714
632.5 1077.57
633.5 1108.57
634.5 1135.29
635.5 1174.71
636.5 1304.71
637.5 1420.57
638.5 1360.29
639.5 1294.29
640.5 1218.14
641.5 1242.14
642.5 1329.14
643.5 1361.71
644.5 1318
645.5 1346.29
646.5 1213.29
647.5 1154.14
648.5 1289.14
649.5 1463
650.5 1844.71
651.5 1769.43
652.5 1267.29
653.5 1064
654.5 1250.29
655.5 1067
656.5 1000.86
657.5 1175.86
658.5 1124.86
659.5 1072.43
660.5 1155.14
661.5 1107.43
662.5 1248.14
663.5 1165.86
664.5 1164.57
665.5 1306.43
666.5 1219.86
667.5 1196.29
668.5 1189
669.5 1280.71
670.5 1182.71
671.5 1079
672.5 1008.86
673.5 1228.43
674.5 1073.86
675.5 1190.43
676.5 1125.86
677.5 1174.71
678.5 1084
679.5 1109.14
680.5 1248.57
681.5 1204.57
682.5 1146.14
683.5 1293.86
684.5 1175.14
685.5 1296.43
686.5 1242.43
687.5 1345
688.5 1124.29
689.5 1194.14
690.5 1312.43
691.5 1166.29
692.5 1114.14
693.5 1148.14
694.5 1293
695.5 1158
696.5 1289.14
697.5 1221.29
698.5 1130
699.5 1235.57
700.5 1253.43
701.5 1222.14
702.5 1172.86
703.5 1085.86
704.5 1150.86
705.5 1049.43
706.5 1121.14
707.5 1278.86
708.5 1084.29
709.5 1156.86
710.5 1241
711.5 1279.43
712.5 1071.29
713.5 1132.57
714.5 1105.29
715.5 1262.71
716.5 1363.29
717.5 1249.86
718.5 1183.43
719.5 1280.71
720.5 1092.86
721.5 1110
722.5 987.714
723.5 1195.43
724.5 1271.14
725.5 1021.43
726.5 1168.14
727.5 1204.14
728.5 1150
729.5 1076.71
730.5 1168.57
731.5 1101.57
732.5 1140.71
733.5 1225
734.5 1188.29
735.5 1139.43
736.5 1231
737.5 1275.86
738.5 1258.29
739.5 1281.57
740.5 1151.71
741.5 1266
742.5 1213
743.5 1244.71
744.5 1165.57
745.5 1141
746.5 1100.57
747.5 1237
748.5 1137.57
749.5 1202.43
750.5 1179.86
751.5 1283.43
752.5 1170.14
753.5 982.571
754.5 1172.14
755.5 1209.71
756.5 1250.86
757.5 1109
758.5 1306
759.5 1472.57
760.5 2280.29
761.5 2313.43
762.5 1558.14
763.5 1353.14
764.5 1081.43
765.5 1377.57
766.5 1238.29
767.5 1201.14
768.5 1279
769.5 1164.86
770.5 1082.14
771.5 1160.43
772.5 1189
773.5 1218
774.5 1110
775.5 1174.43
776.5 1217.71
777.5 1313.43
778.5 1352.57
779.5 1382
780.5 1302.43
781.5 1255.43
782.5 1286.71
783.5 1087.57
784.5 1132.14
785.5 1151.43
786.5 1220.43
787.5 1409.86
788.5 1364.43
789.5 1295.14
790.5 1286.71
791.5 1245
792.5 1258.29
793.5 1188.14
794.5 1307.57
795.5 1221.43
796.5 1372.86
797.5 1432.14
798.5 1114.29
799.5 1298.86
800.5 1252.29
801.5 1293.71
802.5 1305.14
803.5 1339.86
804.5 1299.14
805.5 1210.86
806.5 1182.43
807.5 1382.29
808.5 1305.57
809.5 1192.29
810.5 1213.86
811.5 1322
812.5 1281.29
813.5 1372.14
814.5 1148.86
815.5 1267.29
816.5 1424.57
817.5 1478.86
818.5 1275.43
819.5 1184.29
820.5 1258.43
821.5 1243.71
822.5 1370.71
823.5 1345.86
824.5 1296.14
825.5 1421.71
826.5 1170.14
827.5 1357
828.5 1352.71
829.5 1232
830.5 1371.57
831.5 1349.86
832.5 1309.86
833.5 1260.29
834.5 1371.86
835.5 1463.71
836.5 1397.86
837.5 1360.71
838.5 1432
839.5 1323.14
840.5 1416.57
841.5 1364.57
842.5 1275
843.5 1272.14
844.5 1521.14
845.5 1442.57
846.5 1370.57
847.5 1406.71
848.5 1388.29
849.5 1421.86
850.5 1578.29
851.5 1366.14
852.5 1544.29
853.5 1573.14
854.5 1452.57
855.5 1539
856.5 1513.43
857.5 1367
858.5 1433.29
859.5 1486
860.5 1551.57
861.5 1332.86
862.5 1295.43
863.5 1568
864.5 1496.14
865.5 1450
866.5 1501
867.5 1846.43
868.5 2235.43
869.5 2312.71
870.5 1934.57
871.5 1687.43
872.5 1617.14
873.5 1583.29
874.5 1595.57
875.5 1632.71
876.5 1655.14
877.5 1903.29
878.5 1843
879.5 1879.43
880.5 1464.14
881.5 1697.43
882.5 1771.29
883.5 1601
884.5 1533.29
885.5 1721.57
886.5 1623.57
887.5 1876.71
888.5 1837.86
889.5 1711.86
890.5 1674.57
891.5 1717.29
892.5 1704.86
893.5 1761.57
894.5 1895
895.5 1881.57
896.5 1844.43
897.5 1858.86
898.5 1875.14
899.5 1813.71
900.5 2097.43
901.5 1905.86
902.5 2061.43
903.5 1964.29
904.5 1903.86
905.5 1971.86
906.5 2016.14
907.5 2079.57
908.5 2100.43
909.5 2015.71
910.5 2074.57
911.5 1900.14
912.5 2296.29
913.5 2167.29
914.5 2008.71
915.5 2189.86
916.5 1971.71
917.5 1965.14
918.5 1987.14
919.5 1914.71
920.5 2008.57
921.5 1825.14
922.5 1782.43
923.5 1669.14
924.5 1769.57
925.5 1711
926.5 1773
927.5 1748.43
928.5 1755.86
929.5 1904.43
930.5 1710.14
931.5 1777.57
932.5 1896.43
933.5 1838.71
934.5 1800.57
935.5 1968.29
936.5 1848
937.5 1850.29
938.5 1878.14
939.5 1857.43
940.5 1953
941.5 1870.57
942.5 1845.71
943.5 1908.14
944.5 1784.86
945.5 1663.86
946.5 1630.43
947.5 1707.71
948.5 1535.43
949.5 1569.43
950.5 1529
951.5 1330
952.5 1346
953.5 1368.43
954.5 1454
955.5 1305.57
956.5 1412.29
957.5 1305
958.5 1329.57
959.5 1634.86
960.5 1334.71
961.5 1310.71
962.5 1359.43
963.5 1289.57
964.5 1367.71
965.5 1287.29
966.5 1237.71
967.5 1236.71
968.5 1342.86
969.5 1186.86
970.5 1235.86
971.5 1271.71
972.5 1135.71
973.5 1238.57
974.5 1171.43
975.5 1046.14
976.5 1090.29
977.5 1136.86
978.5 1200.14
979.5 1248.57
980.5 1197.14
981.5 1077.14
982.5 1126.86
983.5 1167.14
984.5 1153.29
985.5 1175.71
986.5 1037
987.5 1224.71
988.5 1093.71
989.5 1110.43
990.5 1131.14
991.5 1089
992.5 1015.86
993.5 1080
994.5 1123.86
995.5 1101.14
996.5 1032.71
997.5 1061.43
998.5 1079.14
999.5 1107.43
1000.5 1067.29
1001.5 1284.86
1002.5 1433.57
1003.5 1313.57
1004.5 1084.71
1005.5 980.714
1006.5 1028.43
1007.5 957.714
1008.5 883.286
1009.5 993
1010.5 849.714
1011.5 913.143
1012.5 917.857
1013.5 825.429
1014.5 919.857
1015.5 1052.43
1016.5 1081.71
1017.5 1069.57
1018.5 1007.86
1019.5 979.571
1020.5 759
1021.5 954.571
1022.5 840.857
1023.5 1018.86
1024.5 1212.43
1025.5 1148.43
1026.5 988.857
1027.5 885.429
1028.5 792.857
1029.5 830.286
1030.5 797.143
1031.5 857.286
1032.5 740.143
1033.5 750
1034.5 797.714
1035.5 760.286
1036.5 631
1037.5 829.857
1038.5 748
1039.5 788.857
1040.5 778.714
1041.5 727.286
1042.5 645.429
1043.5 697.143
1044.5 621.857
1045.5 727.429
1046.5 713.571
1047.5 799.714
1048.5 688
1049.5 753.143
1050.5 755.857
1051.5 797.571
1052.5 589
1053.5 683.429
1054.5 685
1055.5 706.286
1056.5 662.857
1057.5 694.714
1058.5 640.571
1059.5 616.429
1060.5 725.857
1061.5 664.286
1062.5 627.571
1063.5 604.286
1064.5 642.429
1065.5 649.286
1066.5 668.429
1067.5 631.143
1068.5 539.857
1069.5 545.286
1070.5 672.571
1071.5 627.857
1072.5 782.714
1073.5 1362.14
1074.5 1912.14
1075.5 995.714
1076.5 693
1077.5 576.286
1078.5 528
1079.5 663.857
1080.5 686.286
1081.5 629
1082.5 640
1083.5 569.857
1084.5 506
1085.5 636.857
1086.5 573.857
1087.5 644.286
1088.5 569.571
1089.5 496.429
1090.5 571.286
1091.5 526
1092.5 598.857
1093.5 574.286
1094.5 557.714
1095.5 524.714
1096.5 574.571
1097.5 589.429
1098.5 604.286
1099.5 464.571
1100.5 552.571
1101.5 667.286
1102.5 483.857
1103.5 537.857
1104.5 621.714
1105.5 598.571
1106.5 666.143
1107.5 584
1108.5 534
1109.5 664.429
1110.5 633.571
1111.5 591.143
1112.5 547.429
1113.5 565
1114.5 564.143
1115.5 605.143
1116.5 639.857
1117.5 708
1118.5 649.143
1119.5 636.857
1120.5 761.714
1121.5 927.143
1122.5 2136.14
1123.5 8219
1124.5 29157.9
1125.5 69320.9
1126.5 78670.7
1127.5 36157.6
1128.5 8113.29
1129.5 1820.71
1130.5 732.571
1131.5 502.714
1132.5 494.429
1133.5 417.571
1134.5 427.429
1135.5 407.143
1136.5 440
1137.5 326.714
1138.5 449.857
1139.5 370
1140.5 457.143
1141.5 474.571
1142.5 224.714
1143.5 373.143
1144.5 457.714
1145.5 412.857
1146.5 343.429
1147.5 477
1148.5 472.857
1149.5 396.429
1150.5 481.143
1151.5 457.714
1152.5 825.143
1153.5 2455.57
1154.5 10160.7
1155.5 34490
1156.5 77092.3
1157.5 79331.7
1158.5 33055.6
1159.5 6744.14
1160.5 1478
1161.5 407.714
1162.5 377.429
1163.5 311.143
1164.5 216.143
1165.5 240
1166.5 274.143
1167.5 180.571
1168.5 150
1169.5 231.571
1170.5 231.571
1171.5 245.571
1172.5 140.429
1173.5 93.5714
1174.5 159.714
1175.5 176.714
1176.5 172.714
1177.5 201.571
1178.5 213.571
1179.5 159.571
1180.5 275.286
1181.5 210.857
1182.5 206.286
1183.5 285.571
1184.5 243.714
1185.5 430.714
1186.5 297.429
1187.5 283.429
1188.5 184.286
1189.5 173.714
1190.5 197.286
1191.5 161.714
1192.5 175.714
1193.5 187.714
1194.5 132.571
1195.5 167
1196.5 187.143
1197.5 185
1198.5 142.143
1199.5 84.4286
1200.5 158.143
1201.5 204
1202.5 197.857
1203.5 166.429
1204.5 105.857
1205.5 170.857
1206.5 180.571
1207.5 188.286
1208.5 160.143
1209.5 127.429
1210.5 118.143
1211.5 150.714
1212.5 101.571
1213.5 176.857
1214.5 214.714
1215.5 240.429
1216.5 170
1217.5 171.143
1218.5 208.571
1219.5 208.571
1220.5 157.286
1221.5 77
1222.5 171.429
1223.5 172.286
1224.5 183.143
1225.5 157
1226.5 225.714
1227.5 192.143
1228.5 166.571
1229.5 169.429
1230.5 180.857
1231.5 98.8572
1232.5 135.286
1233.5 101.286
1234.5 164
1235.5 181.857
1236.5 173.429
1237.5 172.286
1238.5 108.857
1239.5 147.429
1240.5 226.143
1241.5 155.286
1242.5 113.571
1243.5 165
1244.5 213
1245.5 144.714
1246.5 194.714
1247.5 114
1248.5 170.429
1249.5 187.571
1250.5 172.857
1251.5 139.714
1252.5 254.857
1253.5 211.429
1254.5 169.429
1255.5 213.143
1256.5 150.571
1257.5 149.571
1258.5 174.143
1259.5 182.857
1260.5 240.286
1261.5 192.571
1262.5 167
1263.5 155.571
1264.5 157.429
1265.5 234.571
1266.5 233.857
1267.5 120.857
1268.5 216
1269.5 199
1270.5 120.429
1271.5 188.143
1272.5 217
1273.5 118
1274.5 151.286
1275.5 167.143
1276.5 205
1277.5 204.857
1278.5 151.714
1279.5 124.571
1280.5 222.857
1281.5 238
1282.5 172.429
1283.5 264.857
1284.5 226.714
1285.5 153.143
1286.5 202.714
1287.5 219.571
1288.5 218.143
1289.5 162.857
1290.5 119.714
1291.5 165.143
1292.5 149
1293.5 173.143
1294.5 112.714
1295.5 183
1296.5 115.714
1297.5 174.714
1298.5 245.143
1299.5 139.857
1300.5 174.857
1301.5 112.857
1302.5 254.571
1303.5 208.143
1304.5 212.143
1305.5 146.286
1306.5 140.286
1307.5 149.143
1308.5 149.143
1309.5 118.429
1310.5 143
1311.5 183.857
1312.5 218.286
1313.5 195
1314.5 187.857
1315.5 259.429
1316.5 181.857
1317.5 137
1318.5 103.714
1319.5 244.857
1320.5 155
1321.5 182.286
1322.5 146.714
1323.5 163.857
1324.5 155.429
1325.5 188.143
1326.5 161.571
1327.5 216.143
1328.5 239
1329.5 170.143
1330.5 158.143
1331.5 227.714
1332.5 196.571
1333.5 171.571
1334.5 144.571
1335.5 185.571
1336.5 158.714
1337.5 91.8572
1338.5 149.143
1339.5 135.857
1340.5 155.429
1341.5 160.286
1342.5 139.429
1343.5 188.429
1344.5 199.571
1345.5 161.857
1346.5 226.429
1347.5 220.429
1348.5 78.1429
1349.5 31.1429
1350.5 177.429
1351.5 167.714
1352.5 178.429
1353.5 74.2857
1354.5 178.571
1355.5 123.429
1356.5 94.2857
1357.5 246.571
1358.5 182.857
1359.5 152.571
1360.5 128.857
1361.5 107.857
1362.5 138.143
1363.5 162.429
1364.5 156.429
1365.5 177
1366.5 178.714
1367.5 149.143
1368.5 111.143
1369.5 192.429
1370.5 262.143
1371.5 153.143
1372.5 186.429
1373.5 191.857
1374.5 205.429
1375.5 173.143
1376.5 157
1377.5 153.286
1378.5 186.429
1379.5 124.429
1380.5 190.286
1381.5 166.857
1382.5 255.857
1383.5 225.714
1384.5 154.429
1385.5 160.857
1386.5 124.857
1387.5 163
1388.5 128.857
1389.5 169.571
1390.5 175.714
1391.5 148
1392.5 181.143
1393.5 173.714
1394.5 205.714
1395.5 146.286
1396.5 181
1397.5 137.143
1398.5 94.4286
1399.5 160.571
1400.5 163
1401.5 248.571
1402.5 237
1403.5 160.571
1404.5 141.714
1405.5 200.286
1406.5 182.429
1407.5 129.143
1408.5 159
1409.5 174.286
1410.5 169.857
1411.5 134.286
1412.5 152.857
1413.5 161.286
1414.5 147.857
1415.5 167.286
1416.5 96.5714
1417.5 159.286
1418.5 166.143
1419.5 262.857
1420.5 264.857
1421.5 170.714
1422.5 137
1423.5 147.429
1424.5 107.143
1425.5 132.857
1426.5 224.429
1427.5 224.286
1428.5 191
1429.5 192.429
1430.5 219
1431.5 137.571
1432.5 202.714
1433.5 180.714
1434.5 146.571
1435.5 140.286
1436.5 154.286
1437.5 134.714
1438.5 150.857
1439.5 192.714
1440.5 208
