# EGG_ProjY_E5829.5(7.5)_B5806.0(4.0)_B5852.0(3.0)
# X axis : Energy (keV) [Y axis]
# Y axis : Counts/1 keV
# N Bins : 12000
# X Min : 0
# X Max : 12000
# X value at the center of the bins
0.5 0
1.5 0
2.5 0
3.5 0
4.5 0
5.5 55.6429
6.5 46.3572
7.5 25.7143
8.5 -9.85714
9.5 -3.78571
10.5 26.5
11.5 -2.14285
12.5 37.4286
13.5 28.8572
14.5 16.5
15.5 46.1429
16.5 83.7857
17.5 19.9286
18.5 42.9286
19.5 68.9286
20.5 27.8572
21.5 114.071
22.5 137.071
23.5 165.214
24.5 119.429
25.5 184.286
26.5 170.5
27.5 306
28.5 231.786
29.5 348.429
30.5 309.929
31.5 339.143
32.5 328.214
33.5 391.929
34.5 385.714
35.5 349
36.5 415
37.5 366.286
38.5 364.286
39.5 429
40.5 404.786
41.5 344.857
42.5 389
43.5 377.857
44.5 433.929
45.5 348.071
46.5 397.786
47.5 384.786
48.5 510.143
49.5 367.929
50.5 508.357
51.5 409.429
52.5 547.5
53.5 515.857
54.5 472.571
55.5 449.214
56.5 523.5
57.5 529.214
58.5 752.857
59.5 794.857
60.5 610.286
61.5 505
62.5 493.357
63.5 558.643
64.5 669.929
65.5 577.643
66.5 624.143
67.5 634.071
68.5 650.429
69.5 587.857
70.5 612.214
71.5 604.143
72.5 578.643
73.5 815.143
74.5 960.786
75.5 1115.71
76.5 1057.79
77.5 1231.57
78.5 739.214
79.5 670.214
80.5 399.286
81.5 569.071
82.5 517.571
83.5 578.214
84.5 558.214
85.5 558.643
86.5 743.5
87.5 804.357
88.5 584.286
89.5 593.571
90.5 559.786
91.5 493.857
92.5 363.071
93.5 311.643
94.5 482.786
95.5 306.357
96.5 395.286
97.5 429.643
98.5 453.571
99.5 539.286
100.5 426.643
101.5 469.286
102.5 580.5
103.5 448
104.5 513.286
105.5 428
106.5 611.643
107.5 439.643
108.5 674.643
109.5 514.357
110.5 473.857
111.5 575.643
112.5 774.286
113.5 385.214
114.5 526.5
115.5 444.786
116.5 463
117.5 524.071
118.5 559.857
119.5 545.357
120.5 638.071
121.5 574.357
122.5 454.929
123.5 620.143
124.5 684.643
125.5 695.571
126.5 667.214
127.5 607.571
128.5 634.857
129.5 780.786
130.5 674.143
131.5 814.5
132.5 935.5
133.5 997.643
134.5 861.357
135.5 886.143
136.5 964.786
137.5 811.571
138.5 1032.21
139.5 961
140.5 887.357
141.5 838
142.5 825.072
143.5 803.143
144.5 760
145.5 564.5
146.5 524.5
147.5 443
148.5 616.286
149.5 593.857
150.5 553.929
151.5 575.072
152.5 769.643
153.5 671
154.5 650.572
155.5 703.857
156.5 635.429
157.5 591.072
158.5 691
159.5 757.714
160.5 716.572
161.5 595.429
162.5 721
163.5 926
164.5 946.072
165.5 861.286
166.5 1143.64
167.5 1003.29
168.5 1381.14
169.5 1144.79
170.5 1066.5
171.5 1018.43
172.5 1114.21
173.5 1120.5
174.5 1169.5
175.5 981.5
176.5 762.357
177.5 681.643
178.5 601.143
179.5 542.572
180.5 476.929
181.5 414.072
182.5 629
183.5 445.286
184.5 446.643
185.5 502.143
186.5 501.929
187.5 660.072
188.5 572.5
189.5 420.572
190.5 660.214
191.5 429
192.5 507
193.5 633.929
194.5 622.357
195.5 647.572
196.5 911.786
197.5 1061.43
198.5 1234.21
199.5 1168.07
200.5 1198.86
201.5 1233.64
202.5 1275.21
203.5 1364.86
204.5 1295.71
205.5 1242.64
206.5 1267.86
207.5 1258.86
208.5 1177
209.5 1296.93
210.5 1071.86
211.5 885.786
212.5 908.643
213.5 1033.29
214.5 916.357
215.5 775.929
216.5 922.643
217.5 986.571
218.5 939.714
219.5 748.286
220.5 873.286
221.5 823.429
222.5 632.5
223.5 650.357
224.5 714.643
225.5 587
226.5 538
227.5 408.857
228.5 495.572
229.5 556.143
230.5 625.929
231.5 635.143
232.5 688.214
233.5 666.143
234.5 726.786
235.5 821.357
236.5 785.143
237.5 883.5
238.5 807.571
239.5 802.929
240.5 835.643
241.5 830.214
242.5 843.643
243.5 679.286
244.5 788.5
245.5 825.214
246.5 736.571
247.5 797.929
248.5 673.857
249.5 585.143
250.5 675.929
251.5 798.857
252.5 780.857
253.5 576.357
254.5 665.071
255.5 626.857
256.5 726.786
257.5 634.929
258.5 680.214
259.5 605.643
260.5 618.714
261.5 693.857
262.5 719.143
263.5 653.714
264.5 691.714
265.5 635.071
266.5 581.929
267.5 579.071
268.5 474.643
269.5 488.214
270.5 490.643
271.5 424.643
272.5 425.714
273.5 550.5
274.5 595.143
275.5 859.571
276.5 867.5
277.5 861
278.5 960.286
279.5 869.643
280.5 849.286
281.5 955.857
282.5 909.643
283.5 831.214
284.5 918.786
285.5 1114.71
286.5 1147.64
287.5 1120.43
288.5 1157.64
289.5 1231.64
290.5 1085.71
291.5 1087.14
292.5 1096
293.5 1045.14
294.5 1022.57
295.5 955
296.5 840.429
297.5 851.143
298.5 841.357
299.5 749.571
300.5 753.857
301.5 610.714
302.5 500.357
303.5 468.143
304.5 395
305.5 328.143
306.5 493.357
307.5 453.429
308.5 428.071
309.5 491.786
310.5 475.143
311.5 318.357
312.5 287.357
313.5 171.714
314.5 21.0715
315.5 169.143
316.5 58.8572
317.5 153
318.5 297.357
319.5 139.714
320.5 271.571
321.5 358.071
322.5 403.286
323.5 635.857
324.5 460.214
325.5 530.429
326.5 536.571
327.5 523.357
328.5 441.714
329.5 557.643
330.5 504.071
331.5 473.286
332.5 487
333.5 550.929
334.5 545.5
335.5 576.286
336.5 446.929
337.5 548.929
338.5 486.143
339.5 494.071
340.5 476.929
341.5 532.143
342.5 535.357
343.5 598.571
344.5 492.643
345.5 551.643
346.5 553.5
347.5 430.786
348.5 488.929
349.5 463.643
350.5 415.143
351.5 574.5
352.5 467.857
353.5 571.643
354.5 600.071
355.5 536.143
356.5 551.071
357.5 529
358.5 563.071
359.5 533.286
360.5 518.929
361.5 548.214
362.5 438.786
363.5 523.929
364.5 559
365.5 555.357
366.5 841.071
367.5 1964.93
368.5 2733.07
369.5 1442.71
370.5 557
371.5 509.929
372.5 495.643
373.5 470.143
374.5 524.357
375.5 555.071
376.5 489.429
377.5 432.143
378.5 520.5
379.5 432.857
380.5 468.357
381.5 493
382.5 407.286
383.5 514.929
384.5 528.357
385.5 447.071
386.5 580.929
387.5 574.143
388.5 552.5
389.5 532.071
390.5 506
391.5 530.5
392.5 561.286
393.5 625.429
394.5 587.357
395.5 573.929
396.5 531.571
397.5 577.357
398.5 567.714
399.5 623.429
400.5 656.714
401.5 931.786
402.5 3255.71
403.5 9864.79
404.5 10622.1
405.5 3593.07
406.5 967.571
407.5 480.357
408.5 389.929
409.5 430.143
410.5 404.786
411.5 329.929
412.5 387.857
413.5 387.286
414.5 314
415.5 487.5
416.5 368.357
417.5 311.857
418.5 310.571
419.5 312.071
420.5 495
421.5 290.929
422.5 414.214
423.5 411
424.5 453.929
425.5 480.143
426.5 484.429
427.5 415.786
428.5 436.429
429.5 348.857
430.5 358.429
431.5 414
432.5 412.857
433.5 433.071
434.5 321.214
435.5 411.5
436.5 453.429
437.5 439
438.5 373.714
439.5 473.786
440.5 366.571
441.5 323.143
442.5 405.571
443.5 308.929
444.5 346.786
445.5 367.714
446.5 375.214
447.5 368.143
448.5 315.643
449.5 292.357
450.5 279.143
451.5 290
452.5 278
453.5 237.071
454.5 278.714
455.5 317.571
456.5 369.857
457.5 315.214
458.5 300.357
459.5 251.429
460.5 376.5
461.5 378
462.5 316
463.5 456.714
464.5 381.5
465.5 373.214
466.5 358.429
467.5 282.357
468.5 317.714
469.5 352.857
470.5 415.857
471.5 350.643
472.5 275.571
473.5 300.143
474.5 454.714
475.5 453.5
476.5 413.571
477.5 346.571
478.5 446.786
479.5 453.786
480.5 408.214
481.5 356.643
482.5 423.786
483.5 380.929
484.5 401.857
485.5 344.286
486.5 317.214
487.5 396.5
488.5 489.214
489.5 462.286
490.5 437.214
491.5 420.786
492.5 380.643
493.5 393.071
494.5 484.214
495.5 439.5
496.5 384.429
497.5 368.714
498.5 350.5
499.5 356.714
500.5 355.286
501.5 294.286
502.5 400.571
503.5 413.857
504.5 328.143
505.5 211.929
506.5 182.572
507.5 327.214
508.5 204.357
509.5 598.5
510.5 860.572
511.5 988.429
512.5 735.286
513.5 456.214
514.5 339
515.5 305.143
516.5 301.857
517.5 305.214
518.5 331.357
519.5 355.929
520.5 325.714
521.5 309.571
522.5 327.286
523.5 304.857
524.5 307.786
525.5 219.5
526.5 307.429
527.5 335.5
528.5 404.643
529.5 302.357
530.5 331.071
531.5 313.786
532.5 333
533.5 340.714
534.5 396.786
535.5 356.857
536.5 364.714
537.5 312
538.5 296.5
539.5 304.214
540.5 340
541.5 286.143
542.5 353.714
543.5 338.143
544.5 309.643
545.5 333.286
546.5 249.786
547.5 314.857
548.5 296.214
549.5 333.643
550.5 230.143
551.5 383.357
552.5 303.143
553.5 257.143
554.5 313
555.5 327.143
556.5 227.929
557.5 315.786
558.5 356.286
559.5 315.429
560.5 324.357
561.5 242.357
562.5 331
563.5 386.643
564.5 280.5
565.5 248.714
566.5 302.571
567.5 303.286
568.5 324.143
569.5 324.357
570.5 297.286
571.5 333.357
572.5 319.929
573.5 320.857
574.5 288.857
575.5 312.143
576.5 303.143
577.5 374.071
578.5 306.214
579.5 363.143
580.5 359.214
581.5 293.429
582.5 321.429
583.5 288.571
584.5 366.857
585.5 333.786
586.5 373.286
587.5 380.571
588.5 361.643
589.5 441.357
590.5 361.5
591.5 417.714
592.5 382.857
593.5 346.857
594.5 332.357
595.5 428.929
596.5 390.429
597.5 344.214
598.5 332.643
599.5 341.786
600.5 335.929
601.5 422.286
602.5 311.857
603.5 392.643
604.5 332.929
605.5 251.643
606.5 318.786
607.5 312.357
608.5 319.571
609.5 277.357
610.5 272.357
611.5 261.714
612.5 274.5
613.5 338.571
614.5 321.714
615.5 243.357
616.5 253.429
617.5 244.786
618.5 335
619.5 255.357
620.5 224.071
621.5 265.714
622.5 244.643
623.5 221.143
624.5 262.571
625.5 239.143
626.5 262.357
627.5 257.929
628.5 309.071
629.5 238.643
630.5 278.214
631.5 319
632.5 295.5
633.5 320.5
634.5 264.929
635.5 300.786
636.5 246.929
637.5 494.143
638.5 337.571
639.5 319.643
640.5 318.357
641.5 319.429
642.5 320.786
643.5 329.929
644.5 465.857
645.5 434.643
646.5 463.143
647.5 395.357
648.5 481.286
649.5 591.571
650.5 1222.14
651.5 1443.07
652.5 737.786
653.5 478.643
654.5 342.786
655.5 360.857
656.5 339.357
657.5 268.929
658.5 347.214
659.5 282.857
660.5 255.071
661.5 215.643
662.5 285.714
663.5 308.5
664.5 313.714
665.5 309.214
666.5 327.429
667.5 335.571
668.5 277.429
669.5 297.571
670.5 234.571
671.5 214.929
672.5 222.786
673.5 252.286
674.5 272.857
675.5 281.643
676.5 294.643
677.5 312
678.5 269.929
679.5 325.357
680.5 265.5
681.5 295.143
682.5 279.571
683.5 265.786
684.5 288.071
685.5 293.286
686.5 307.714
687.5 223.429
688.5 189.5
689.5 345.143
690.5 276.214
691.5 208.286
692.5 262.214
693.5 293.286
694.5 236.571
695.5 284.071
696.5 280.571
697.5 287.643
698.5 317.429
699.5 290.5
700.5 301.143
701.5 355.5
702.5 343.286
703.5 320.786
704.5 297.143
705.5 311.143
706.5 288.286
707.5 357.5
708.5 300.786
709.5 305.786
710.5 332.571
711.5 432.214
712.5 379.214
713.5 372.286
714.5 431.857
715.5 362.429
716.5 452.571
717.5 354.714
718.5 376.357
719.5 380.143
720.5 337.286
721.5 359.143
722.5 368.5
723.5 254.786
724.5 429.643
725.5 500.5
726.5 602.643
727.5 399.714
728.5 402.5
729.5 302
730.5 278.143
731.5 289.643
732.5 287.786
733.5 267.643
734.5 214.429
735.5 216.429
736.5 295.214
737.5 212.929
738.5 273.429
739.5 251.5
740.5 286.571
741.5 275.786
742.5 283
743.5 206.786
744.5 144.143
745.5 304.357
746.5 264.357
747.5 360.929
748.5 326.714
749.5 327.357
750.5 320.571
751.5 309.286
752.5 293.5
753.5 302.5
754.5 304.429
755.5 313.643
756.5 304.429
757.5 337.071
758.5 263.571
759.5 352.786
760.5 452.5
761.5 558.5
762.5 363.071
763.5 456.071
764.5 343.143
765.5 357.071
766.5 292.357
767.5 351.929
768.5 329.643
769.5 287
770.5 263
771.5 327.929
772.5 346.643
773.5 332.643
774.5 410.929
775.5 295.071
776.5 312.786
777.5 280.357
778.5 293.286
779.5 323.857
780.5 312.643
781.5 315.071
782.5 357.714
783.5 293.143
784.5 235.643
785.5 313.071
786.5 217.357
787.5 296.286
788.5 182.214
789.5 336
790.5 303.357
791.5 304.429
792.5 296.857
793.5 263.5
794.5 279.929
795.5 344
796.5 352.429
797.5 311.214
798.5 340.929
799.5 315.643
800.5 237.071
801.5 340.5
802.5 285.5
803.5 271.214
804.5 375.071
805.5 356.786
806.5 412.714
807.5 371.571
808.5 353.214
809.5 351.786
810.5 350
811.5 283.071
812.5 284.571
813.5 354.214
814.5 327.5
815.5 354.071
816.5 276.143
817.5 376.857
818.5 321.214
819.5 331.429
820.5 297.286
821.5 279.357
822.5 292.286
823.5 348.5
824.5 348.714
825.5 346.143
826.5 294.786
827.5 304.286
828.5 295.5
829.5 329.214
830.5 330.571
831.5 315.357
832.5 277.143
833.5 355.857
834.5 377.286
835.5 343.286
836.5 310.857
837.5 270.357
838.5 357.714
839.5 333.643
840.5 323.286
841.5 304.357
842.5 326.714
843.5 340.071
844.5 258.357
845.5 310
846.5 326.857
847.5 316.286
848.5 403.643
849.5 397.357
850.5 345.143
851.5 234.643
852.5 334.929
853.5 290.857
854.5 366
855.5 379.071
856.5 242.429
857.5 261.071
858.5 373.357
859.5 326.214
860.5 364.143
861.5 360.571
862.5 363.214
863.5 311.786
864.5 297.643
865.5 333.071
866.5 378.214
867.5 360.929
868.5 308.929
869.5 387.857
870.5 425.071
871.5 329.643
872.5 353.143
873.5 410.429
874.5 378.5
875.5 411
876.5 465.571
877.5 467.071
878.5 493.786
879.5 327.429
880.5 437.214
881.5 341.143
882.5 399.929
883.5 349.571
884.5 358.429
885.5 383.429
886.5 391.643
887.5 409.714
888.5 341.929
889.5 383.071
890.5 378
891.5 417
892.5 468.143
893.5 425.143
894.5 445.071
895.5 481.286
896.5 429.857
897.5 387.214
898.5 388.5
899.5 459.571
900.5 442.357
901.5 354.5
902.5 408.429
903.5 368.286
904.5 407.071
905.5 470.643
906.5 364.786
907.5 477.643
908.5 344.429
909.5 358.571
910.5 420.143
911.5 374.643
912.5 475.143
913.5 413.571
914.5 465.643
915.5 436.571
916.5 377.286
917.5 365
918.5 418.857
919.5 388.714
920.5 477.071
921.5 394.857
922.5 341.214
923.5 409
924.5 419
925.5 406.786
926.5 494.571
927.5 445.571
928.5 382.5
929.5 475.143
930.5 339.857
931.5 322.429
932.5 420.571
933.5 374.857
934.5 465.071
935.5 442.643
936.5 491.786
937.5 489.071
938.5 414.286
939.5 559.429
940.5 503.857
941.5 449.929
942.5 499
943.5 494.286
944.5 481.5
945.5 469.714
946.5 387.857
947.5 425.143
948.5 436.286
949.5 392.143
950.5 303.071
951.5 390.786
952.5 269.429
953.5 349.143
954.5 395.071
955.5 322.786
956.5 321.786
957.5 339.286
958.5 314
959.5 361.286
960.5 270.714
961.5 328.571
962.5 328.429
963.5 292.786
964.5 332.5
965.5 379.214
966.5 375.429
967.5 388
968.5 373.071
969.5 314.714
970.5 248.214
971.5 329.286
972.5 347.786
973.5 240.214
974.5 345.571
975.5 301.929
976.5 292.429
977.5 328.143
978.5 311.786
979.5 321.214
980.5 278.286
981.5 353.357
982.5 335.571
983.5 350.214
984.5 300.857
985.5 272.857
986.5 328.143
987.5 236.714
988.5 302.214
989.5 313.214
990.5 310.429
991.5 321.714
992.5 330.357
993.5 264.857
994.5 283.286
995.5 279.571
996.5 258.357
997.5 293.643
998.5 292.571
999.5 375.929
1000.5 335.286
1001.5 361.214
1002.5 381.714
1003.5 304.643
1004.5 315.643
1005.5 248
1006.5 226.714
1007.5 279.929
1008.5 292.929
1009.5 280.714
1010.5 250.071
1011.5 297.714
1012.5 289.286
1013.5 290.714
1014.5 250.857
1015.5 282
1016.5 276.357
1017.5 333.643
1018.5 499.143
1019.5 735.357
1020.5 523.357
1021.5 389
1022.5 482
1023.5 1021.86
1024.5 1735.43
1025.5 1411.07
1026.5 666.857
1027.5 338.357
1028.5 301.714
1029.5 183.857
1030.5 237.643
1031.5 231.786
1032.5 283.643
1033.5 243.929
1034.5 251.214
1035.5 252.143
1036.5 213.714
1037.5 239.286
1038.5 269.786
1039.5 252.714
1040.5 220.643
1041.5 187.929
1042.5 187.643
1043.5 265.071
1044.5 210
1045.5 261.143
1046.5 267.571
1047.5 201.571
1048.5 150.786
1049.5 230.571
1050.5 263.071
1051.5 244.786
1052.5 204.286
1053.5 217.571
1054.5 186.5
1055.5 207.714
1056.5 169.143
1057.5 172.143
1058.5 205.571
1059.5 210.286
1060.5 190.214
1061.5 217.714
1062.5 271.786
1063.5 217.714
1064.5 229
1065.5 198.357
1066.5 268.571
1067.5 195.071
1068.5 192.571
1069.5 209.929
1070.5 219.429
1071.5 247.714
1072.5 235
1073.5 327.929
1074.5 256.286
1075.5 222.071
1076.5 230.643
1077.5 259.5
1078.5 256.143
1079.5 206.357
1080.5 204.786
1081.5 179.286
1082.5 211.429
1083.5 177.429
1084.5 168.286
1085.5 192.071
1086.5 186.214
1087.5 220.571
1088.5 204.071
1089.5 200.286
1090.5 220.929
1091.5 148.929
1092.5 174.286
1093.5 176.643
1094.5 77.1429
1095.5 -44.9286
1096.5 91.1429
1097.5 129
1098.5 197
1099.5 317.714
1100.5 502.857
1101.5 565.429
1102.5 384.786
1103.5 223.357
1104.5 184.286
1105.5 230.357
1106.5 191.286
1107.5 215.5
1108.5 208.071
1109.5 202
1110.5 261.5
1111.5 243.857
1112.5 217.571
1113.5 264.929
1114.5 275.786
1115.5 177.786
1116.5 197.143
1117.5 237.429
1118.5 266.643
1119.5 299
1120.5 254.571
1121.5 233.857
1122.5 349.357
1123.5 757.571
1124.5 2314.07
1125.5 5389.36
1126.5 5659.5
1127.5 2798.71
1128.5 882
1129.5 313.929
1130.5 218.5
1131.5 231.357
1132.5 234.786
1133.5 151.786
1134.5 177.357
1135.5 200.571
1136.5 206.929
1137.5 192.429
1138.5 240
1139.5 192.357
1140.5 178.143
1141.5 168.5
1142.5 176.5
1143.5 203.071
1144.5 222.214
1145.5 212.929
1146.5 230.929
1147.5 222.071
1148.5 250.857
1149.5 215.143
1150.5 220.929
1151.5 261.5
1152.5 382.786
1153.5 900.429
1154.5 2654.57
1155.5 8857.93
1156.5 20372.7
1157.5 20221.7
1158.5 8402.71
1159.5 2000
1160.5 439
1161.5 291.357
1162.5 140.429
1163.5 186.714
1164.5 194
1165.5 179.571
1166.5 131
1167.5 101.143
1168.5 137.5
1169.5 166.5
1170.5 113.357
1171.5 131.643
1172.5 147.857
1173.5 173.143
1174.5 149
1175.5 170.429
1176.5 151.357
1177.5 138.214
1178.5 156.143
1179.5 134.929
1180.5 165.5
1181.5 122.143
1182.5 107
1183.5 192.786
1184.5 103.214
1185.5 138.571
1186.5 156.143
1187.5 119.857
1188.5 148
1189.5 172.286
1190.5 159.929
1191.5 152.429
1192.5 141.643
1193.5 150.857
1194.5 176.143
1195.5 181.357
1196.5 224.5
1197.5 182.286
1198.5 149.143
1199.5 164.786
1200.5 148.143
1201.5 162.5
1202.5 161.071
1203.5 141
1204.5 160.571
1205.5 163
1206.5 142.071
1207.5 176.143
1208.5 157.429
1209.5 148.429
1210.5 119.143
1211.5 192.357
1212.5 135.143
1213.5 139
1214.5 124
1215.5 183.214
1216.5 131.429
1217.5 177.5
1218.5 187.357
1219.5 164.357
1220.5 171.214
1221.5 171.857
1222.5 129.429
1223.5 130.786
1224.5 157.929
1225.5 204.643
1226.5 136.714
1227.5 171.643
1228.5 144.286
1229.5 139.857
1230.5 156.714
1231.5 158
1232.5 174.214
1233.5 114.357
1234.5 171.214
1235.5 177.143
1236.5 139.143
1237.5 149.429
1238.5 163.071
1239.5 120.643
1240.5 148.5
1241.5 135.857
1242.5 167.786
1243.5 156.929
1244.5 186.143
1245.5 164.429
1246.5 103.857
1247.5 145.929
1248.5 156.071
1249.5 165.929
1250.5 170.214
1251.5 172.929
1252.5 119.786
1253.5 167.357
1254.5 159.714
1255.5 133.5
1256.5 156.643
1257.5 158.071
1258.5 142.5
1259.5 110.5
1260.5 152.571
1261.5 175.714
1262.5 174.071
1263.5 165.714
1264.5 174.214
1265.5 213.143
1266.5 166.214
1267.5 135.071
1268.5 175.857
1269.5 126.071
1270.5 182.429
1271.5 179.286
1272.5 144
1273.5 162.429
1274.5 132.357
1275.5 148.786
1276.5 132.214
1277.5 140.643
1278.5 106.071
1279.5 167.143
1280.5 121.143
1281.5 182.643
1282.5 154.571
1283.5 160.5
1284.5 182.643
1285.5 168.643
1286.5 180.357
1287.5 173.357
1288.5 189.929
1289.5 250.214
1290.5 230.714
1291.5 194.286
1292.5 215.643
1293.5 185.5
1294.5 167.643
1295.5 160.571
1296.5 154.786
1297.5 147.429
1298.5 175.929
1299.5 157.5
1300.5 176.714
1301.5 176.5
1302.5 173.857
1303.5 183.429
1304.5 130.286
1305.5 179.143
1306.5 155.071
1307.5 158.929
1308.5 130.714
1309.5 155.571
1310.5 190
1311.5 171.714
1312.5 169.5
1313.5 155.786
1314.5 139.429
1315.5 181
1316.5 120.571
1317.5 165.5
1318.5 158.786
1319.5 148
1320.5 203.643
1321.5 141.857
1322.5 159
1323.5 159.571
1324.5 180.071
1325.5 152.857
1326.5 181.214
1327.5 158.5
1328.5 184.571
1329.5 202.357
1330.5 164.214
1331.5 149.5
1332.5 176.143
1333.5 163.857
1334.5 188.714
1335.5 147
1336.5 154.286
1337.5 164.714
1338.5 149.857
1339.5 154.643
1340.5 158.571
1341.5 200.071
1342.5 191.786
1343.5 169.643
1344.5 183.857
1345.5 177.286
1346.5 156.714
1347.5 195.214
1348.5 171.643
1349.5 203.786
1350.5 146.286
1351.5 181
1352.5 224.429
1353.5 226.214
1354.5 183.571
1355.5 201.714
1356.5 228.929
1357.5 204.929
1358.5 163.786
1359.5 187.214
1360.5 177
1361.5 217.786
1362.5 190.571
1363.5 156.5
1364.5 184.357
1365.5 230.357
1366.5 233.857
1367.5 205.929
1368.5 192.643
1369.5 177.286
1370.5 177.571
1371.5 184.429
1372.5 248.286
1373.5 189.929
1374.5 197.429
1375.5 195.857
1376.5 199.429
1377.5 151.5
1378.5 141.643
1379.5 171.286
1380.5 162.071
1381.5 188.714
1382.5 150.643
1383.5 200.429
1384.5 192.286
1385.5 223.071
1386.5 174.5
1387.5 168.643
1388.5 186.714
1389.5 167.857
1390.5 165.643
1391.5 175.286
1392.5 162.786
1393.5 184
1394.5 164.571
1395.5 197.071
1396.5 117.429
1397.5 175.214
1398.5 191.429
1399.5 181.643
1400.5 161.929
1401.5 121.5
1402.5 141.571
1403.5 137.5
1404.5 163
1405.5 134.429
1406.5 122.429
1407.5 45.8571
1408.5 8.00001
1409.5 97.2143
1410.5 119.429
1411.5 131.929
1412.5 127.857
1413.5 153.071
1414.5 110.357
1415.5 136.571
1416.5 79.1429
1417.5 193.857
1418.5 149.714
1419.5 120.571
1420.5 97.8571
1421.5 165.571
1422.5 150.286
1423.5 200.714
1424.5 185.857
1425.5 329.429
1426.5 735.857
1427.5 1782.14
1428.5 2780.43
1429.5 2179.43
1430.5 763.286
1431.5 283.571
1432.5 141.357
1433.5 123.714
1434.5 124.857
1435.5 147.429
1436.5 151.857
