# EGG_ProjY_E876.5(2.5)_B860.5(2.5)_B882.5(1.5)_B890.5(1.5)
# X axis : Energy (keV) [Y axis]
# Y axis : Counts/1 keV
# N Bins : 12000
# X Min : 0
# X Max : 12000
# X value at the center of the bins
0.5 0
1.5 0
2.5 0
3.5 0
4.5 0
5.5 62.7273
6.5 54.6364
7.5 80.3636
8.5 94.0909
9.5 63.8182
10.5 29.2727
11.5 36.5454
12.5 70.8182
13.5 131.455
14.5 117.545
15.5 211.545
16.5 209.545
17.5 260.273
18.5 314.091
19.5 429.727
20.5 481.364
21.5 658.182
22.5 678.818
23.5 896.273
24.5 1119.73
25.5 892.727
26.5 1314.36
27.5 1551.91
28.5 1347.36
29.5 1733.45
30.5 1738.64
31.5 1996
32.5 2299.82
33.5 2256
34.5 2079.64
35.5 2243.09
36.5 2343.45
37.5 2321.91
38.5 2557.64
39.5 2541.36
40.5 2689.18
41.5 2795.09
42.5 3257.82
43.5 3393.73
44.5 3095.18
45.5 2887.45
46.5 2820.73
47.5 2874.36
48.5 2918.27
49.5 3013
50.5 2764
51.5 2356.18
52.5 2918.82
53.5 2720.36
54.5 2979.36
55.5 2759.64
56.5 3073.55
57.5 3316.09
58.5 4106.54
59.5 4541.36
60.5 3412.54
61.5 3329.27
62.5 3045.82
63.5 3021.09
64.5 3035
65.5 2678.09
66.5 3137.27
67.5 3596.91
68.5 3834.27
69.5 3239.18
70.5 3486.45
71.5 3139
72.5 2996.91
73.5 3761.82
74.5 5439.45
75.5 6218.54
76.5 6599.82
77.5 7045.18
78.5 4802.54
79.5 3410.91
80.5 3359.54
81.5 3041.82
82.5 3000.55
83.5 3158.18
84.5 3288.73
85.5 3589.27
86.5 4268.54
87.5 4960.91
88.5 4349.36
89.5 3971
90.5 3414.73
91.5 3397.55
92.5 3108.18
93.5 3091.36
94.5 2557.82
95.5 2984
96.5 3115.73
97.5 3205.64
98.5 3279.18
99.5 3115.64
100.5 3175.91
101.5 3193.18
102.5 3205.73
103.5 3510.64
104.5 3341.45
105.5 3250.45
106.5 3527.64
107.5 3528.73
108.5 3345.45
109.5 3266.27
110.5 3323.54
111.5 3207.54
112.5 3281.54
113.5 3574.45
114.5 3555.18
115.5 3738
116.5 3405.09
117.5 3337
118.5 3206.73
119.5 3346.73
120.5 3498.54
121.5 4016.54
122.5 4468
123.5 4834.64
124.5 5119.91
125.5 4847.45
126.5 4816.09
127.5 4460.18
128.5 4346.82
129.5 4324.73
130.5 4213.36
131.5 3524.82
132.5 3525.82
133.5 3831.45
134.5 4004.64
135.5 4279.54
136.5 4171.54
137.5 4126.73
138.5 4271.91
139.5 3495.64
140.5 3489.73
141.5 3048.36
142.5 2942
143.5 3772.27
144.5 4314.64
145.5 4824.73
146.5 4640.91
147.5 4697.36
148.5 4328.73
149.5 4572.64
150.5 4175.36
151.5 3780.36
152.5 3944.54
153.5 3712
154.5 3394.27
155.5 3694.36
156.5 3878.09
157.5 3993.18
158.5 4117.91
159.5 4144
160.5 3311.82
161.5 3764
162.5 3893.54
163.5 3501.09
164.5 3711
165.5 3610.18
166.5 3697.36
167.5 3697.73
168.5 4053.64
169.5 3987.36
170.5 4343.36
171.5 4279.73
172.5 4440.73
173.5 4587.54
174.5 4294.82
175.5 4474.18
176.5 4272.54
177.5 4710.18
178.5 4824
179.5 4542.18
180.5 4270
181.5 5086.18
182.5 4559.45
183.5 2989.09
184.5 2694.64
185.5 3278
186.5 4016.36
187.5 4022.27
188.5 3611.09
189.5 3007.09
190.5 2561.73
191.5 2137.27
192.5 3125.91
193.5 4895.27
194.5 7137.82
195.5 9002.82
196.5 10346.5
197.5 10686.5
198.5 10987.5
199.5 9689.91
200.5 7181.36
201.5 5406.64
202.5 4722.64
203.5 4474.64
204.5 4242.27
205.5 3760.36
206.5 4232.36
207.5 4066.64
208.5 4362.09
209.5 3605.09
210.5 2499.54
211.5 874.363
212.5 -29.4552
213.5 -363.728
214.5 278.454
215.5 2053.91
216.5 3424.09
217.5 4688.18
218.5 5098.82
219.5 5560.54
220.5 5735.91
221.5 5481.36
222.5 5481.73
223.5 5259.45
224.5 5132.64
225.5 5006.36
226.5 4925.27
227.5 5493
228.5 4766.73
229.5 4766
230.5 4275.09
231.5 3521.27
232.5 1564.64
233.5 -2185.27
234.5 -6442.46
235.5 -7118.91
236.5 -4391.09
237.5 -124.364
238.5 2793.82
239.5 2792.36
240.5 1850.64
241.5 -1726.18
242.5 -5227.55
243.5 -5479.09
244.5 -762.364
245.5 7870.82
246.5 19515.5
247.5 30055.3
248.5 35915.8
249.5 36923.4
250.5 32620.3
251.5 23558.5
252.5 14239.5
253.5 7864.45
254.5 4792.64
255.5 4218.27
256.5 3908.82
257.5 3470.55
258.5 3562.45
259.5 3190.45
260.5 2357.27
261.5 -261.182
262.5 -5947.36
263.5 -14586.7
264.5 -23776.5
265.5 -30017.1
266.5 -28260.3
267.5 -18769.5
268.5 -7453.09
269.5 -871.182
270.5 896.545
271.5 -2507.09
272.5 -9126.46
273.5 -14778.7
274.5 -13826.3
275.5 -4073.09
276.5 12718.2
277.5 33566.1
278.5 50846.8
279.5 60920.3
280.5 60971.1
281.5 52510.2
282.5 35589.1
283.5 19654.3
284.5 9370.73
285.5 5363.36
286.5 4161.55
287.5 4145.82
288.5 3428.45
289.5 3288.36
290.5 2734.82
291.5 666.272
292.5 -4016.18
293.5 -11536.8
294.5 -18616.8
295.5 -22544.3
296.5 -22209.3
297.5 -18611.5
298.5 -11064.2
299.5 -3894.09
300.5 810.545
301.5 2545.91
302.5 2994
303.5 3396.27
304.5 3517.55
305.5 3857.64
306.5 3776.27
307.5 4077.82
308.5 4043.82
309.5 3822.64
310.5 4017.55
311.5 3483.82
312.5 3614.45
313.5 3337.27
314.5 3583
315.5 3465.45
316.5 3465.91
317.5 3500.18
318.5 3229
319.5 3551.27
320.5 3280.73
321.5 3071.09
322.5 3175.73
323.5 3267
324.5 3118.73
325.5 3460.64
326.5 3487.91
327.5 3413
328.5 3663.36
329.5 3541.45
330.5 3895
331.5 3678
332.5 3289.82
333.5 3038
334.5 3336.55
335.5 3476.27
336.5 3229.55
337.5 3317.18
338.5 3388.18
339.5 3144.18
340.5 2924.64
341.5 3372.73
342.5 3070.36
343.5 3215.45
344.5 3237.73
345.5 3251.55
346.5 3090.91
347.5 3081.73
348.5 3194.82
349.5 3336.09
350.5 3317
351.5 3423.18
352.5 3147.27
353.5 3345.73
354.5 2966.27
355.5 3003.09
356.5 2985.82
357.5 3165.91
358.5 3080.73
359.5 2848.82
360.5 3180.55
361.5 2875.73
362.5 3002.73
363.5 2870.45
364.5 2752.73
365.5 3188.55
366.5 3672.91
367.5 5394
368.5 7269.73
369.5 4717.18
370.5 3248.09
371.5 2847.45
372.5 3121.27
373.5 3064.36
374.5 3140.09
375.5 2808.45
376.5 2756.45
377.5 2589.91
378.5 2756.82
379.5 2681.73
380.5 2913.18
381.5 3198.73
382.5 2996.45
383.5 3252.36
384.5 3583.18
385.5 3272
386.5 3104
387.5 3119.55
388.5 3234.82
389.5 3006.91
390.5 2974.64
391.5 2887.82
392.5 2697.91
393.5 2781
394.5 2809.73
395.5 2723.18
396.5 2755.73
397.5 2507.73
398.5 2607.18
399.5 2474.91
400.5 2653.55
401.5 2486.64
402.5 2296.09
403.5 2706.45
404.5 3077.36
405.5 2999.27
406.5 3018.82
407.5 2759
408.5 2571.55
409.5 2749.73
410.5 2664.55
411.5 2556.36
412.5 2665.45
413.5 2706.45
414.5 2925.09
415.5 3026.73
416.5 2965
417.5 2953.91
418.5 2669
419.5 2768.09
420.5 2831.18
421.5 2879.27
422.5 2693.82
423.5 2698.27
424.5 2693.36
425.5 2625.27
426.5 2458.82
427.5 2723.82
428.5 2843.09
429.5 2702.36
430.5 2466.73
431.5 2767.73
432.5 2824.18
433.5 2752.27
434.5 2541.55
435.5 2803.91
436.5 2477.55
437.5 2731.91
438.5 2432.36
439.5 2574.64
440.5 2681.73
441.5 2579.82
442.5 2728.27
443.5 2779.36
444.5 2707.45
445.5 2778.82
446.5 2448.36
447.5 2499.55
448.5 2441.18
449.5 2550.27
450.5 2519.36
451.5 2617.91
452.5 2642.73
453.5 2693.91
454.5 2378.45
455.5 2685.73
456.5 2601
457.5 2446.55
458.5 2544
459.5 2300.91
460.5 2835.45
461.5 2812.73
462.5 2428.27
463.5 2624.09
464.5 2467
465.5 2739.73
466.5 2213.91
467.5 2665.36
468.5 2506.27
469.5 2625.18
470.5 2665.09
471.5 2641.64
472.5 3134.82
473.5 3800.27
474.5 3912.64
475.5 3313.91
476.5 3083.45
477.5 2839.64
478.5 2820.73
479.5 2813.36
480.5 2771.55
481.5 2842.18
482.5 2660.82
483.5 2635.45
484.5 2458.55
485.5 2697.64
486.5 2388.27
487.5 2544.36
488.5 2551.55
489.5 2291.64
490.5 2364.73
491.5 2410.55
492.5 2633.64
493.5 2506.27
494.5 2493.82
495.5 2558.18
496.5 2671
497.5 2713.36
498.5 2809.91
499.5 2897.73
500.5 3045
501.5 2821.27
502.5 2629.64
503.5 2666.55
504.5 2521.18
505.5 2658.82
506.5 3399.27
507.5 4433.45
508.5 7530.09
509.5 11954.2
510.5 17047.5
511.5 16373
512.5 10857.7
513.5 5973.09
514.5 3678.45
515.5 2737.18
516.5 2499.36
517.5 2402.36
518.5 2262
519.5 2320.27
520.5 2348
521.5 2427.18
522.5 2364.09
523.5 2298.64
524.5 2288.27
525.5 2152.73
526.5 2511.73
527.5 2310.18
528.5 2237.55
529.5 2214.82
530.5 2324.55
531.5 2426.55
532.5 2405.27
533.5 2386.91
534.5 2401.45
535.5 2381.91
536.5 2315.27
537.5 2287.27
538.5 2371.18
539.5 2351.64
540.5 2564.55
541.5 2400.73
542.5 2477.91
543.5 2309.18
544.5 2514.45
545.5 2304.18
546.5 2411.64
547.5 2589.18
548.5 2489.91
549.5 2684.55
550.5 2690
551.5 2929.82
552.5 2906.73
553.5 2683.27
554.5 2599.45
555.5 2825.45
556.5 2538.45
557.5 2586.55
558.5 2737.64
559.5 2827
560.5 2882.91
561.5 2851.91
562.5 2774.64
563.5 2526.64
564.5 2551.36
565.5 2363.27
566.5 2551
567.5 2506.73
568.5 2412.55
569.5 2317.91
570.5 2483.27
571.5 2391.18
572.5 2511.45
573.5 2566.91
574.5 2534.18
575.5 2395.45
576.5 2192.73
577.5 2350.45
578.5 2044.73
579.5 2084.55
580.5 2248.18
581.5 2186.91
582.5 2253.91
583.5 2357.73
584.5 2347.18
585.5 2251.91
586.5 2174.18
587.5 2157.73
588.5 2287.55
589.5 2093.73
590.5 2046.55
591.5 1920
592.5 2026.64
593.5 2144
594.5 2449.27
595.5 2257.36
596.5 2256.18
597.5 1787.36
598.5 2067.73
599.5 2063.36
600.5 2080.18
601.5 1759.91
602.5 2028.91
603.5 2050.91
604.5 1945.18
605.5 1884.91
606.5 2010
607.5 1956.18
608.5 2051.55
609.5 1806.18
610.5 1855.27
611.5 1941.27
612.5 1994.45
613.5 2115
614.5 1957.91
615.5 1878
616.5 1845
617.5 1885
618.5 2104.09
619.5 2348.36
620.5 2484.45
621.5 2644.09
622.5 2528.91
623.5 2608
624.5 2524
625.5 2299.36
626.5 2007.09
627.5 2005.64
628.5 2119.09
629.5 2037
630.5 1944.64
631.5 2123.45
632.5 1990.55
633.5 1979.55
634.5 1883.36
635.5 1698
636.5 1668
637.5 1491.45
638.5 1624.55
639.5 1580.09
640.5 1873.82
641.5 2250.27
642.5 2244.82
643.5 1846.73
644.5 2118.09
645.5 1820.82
646.5 1954.09
647.5 1734.82
648.5 1923.18
649.5 1817.45
650.5 1873.55
651.5 2006.09
652.5 2019.91
653.5 1690
654.5 1720.18
655.5 1893.64
656.5 1951.18
657.5 1770.36
658.5 1823
659.5 1822.36
660.5 1983.36
661.5 1905.55
662.5 1946.64
663.5 1925.27
664.5 1921.09
665.5 1934.91
666.5 1929.18
667.5 1905.73
668.5 1830.82
669.5 1912.45
670.5 1788
671.5 2031
672.5 1768
673.5 1686.18
674.5 1812.27
675.5 1885.18
676.5 1706
677.5 1802.64
678.5 1844.45
679.5 1840.18
680.5 1749
681.5 1690.82
682.5 1703.36
683.5 1601.09
684.5 1835.09
685.5 1709
686.5 1678.27
687.5 1828.09
688.5 1779.82
689.5 1816.36
690.5 1925.91
691.5 1858.82
692.5 1983.64
693.5 1818.91
694.5 2034.64
695.5 1810.64
696.5 1884
697.5 1843
698.5 1864
699.5 1736.09
700.5 1914.18
701.5 1897.73
702.5 1614.18
703.5 1729.82
704.5 1719.09
705.5 1784.27
706.5 1668.91
707.5 1689.09
708.5 1787
709.5 1807.45
710.5 1819.09
711.5 1786.36
712.5 1878.73
713.5 1568
714.5 1904.64
715.5 1875.64
716.5 1750.09
717.5 1748.36
718.5 1731.27
719.5 1848
720.5 1728.27
721.5 1815
722.5 1810.45
723.5 1927.09
724.5 1818.27
725.5 1612.91
726.5 1819.36
727.5 1636.36
728.5 1745.64
729.5 1655.82
730.5 1779.18
731.5 1791.82
732.5 1916.36
733.5 1899.91
734.5 1789.82
735.5 1795.82
736.5 1683.27
737.5 1854.82
738.5 1719.55
739.5 1724.73
740.5 1665.64
741.5 1482.36
742.5 1561.73
743.5 1590.45
744.5 1701.18
745.5 1771.36
746.5 1820.09
747.5 2111.45
748.5 1849.45
749.5 1740.45
750.5 1720.45
751.5 1833.27
752.5 2062.64
753.5 2102.73
754.5 2305.82
755.5 2318.27
756.5 2568.09
757.5 2702.73
758.5 5616.09
759.5 23869.7
760.5 66330.9
761.5 73631.1
762.5 31479.1
763.5 8290.91
764.5 2880.18
765.5 1907.18
766.5 1740.82
767.5 1575.55
768.5 1701.55
769.5 1520.73
770.5 1438.45
771.5 1479.27
772.5 1342.36
773.5 1412.55
774.5 1535.45
775.5 1452.64
776.5 1375
777.5 1427.91
778.5 1542.27
779.5 1471
780.5 1654.18
781.5 1561.36
782.5 1543.18
783.5 1431.45
784.5 1695.18
785.5 1447.55
786.5 1600.27
787.5 1430.64
788.5 1555.45
789.5 1494.18
790.5 1555.09
791.5 1638.18
792.5 1798.64
793.5 1583
794.5 1479.36
795.5 1706.36
796.5 1472.82
797.5 1722
798.5 1505.36
799.5 1747.55
800.5 1672.27
801.5 1644.36
802.5 1504.64
803.5 1729.36
804.5 1635.45
805.5 1669.45
806.5 1808.45
807.5 1747.73
808.5 1607.18
809.5 1569.73
810.5 1678.18
811.5 1694
812.5 1790.09
813.5 1597.91
814.5 1685
815.5 1892.64
816.5 1698.73
817.5 1728
818.5 1572.64
819.5 1899.73
820.5 1754.45
821.5 1718.64
822.5 1876.73
823.5 1722.27
824.5 1599.09
825.5 1670.64
826.5 1614.55
827.5 1741.18
828.5 1713.91
829.5 1826.18
830.5 1705.91
831.5 1667.36
832.5 1654.27
833.5 1710.18
834.5 1616.82
835.5 1636.55
836.5 1562.73
837.5 1659.18
838.5 1600.36
839.5 1683.73
840.5 1767.45
841.5 1759.18
842.5 1832.09
843.5 1867.45
844.5 1775.27
845.5 2056.27
846.5 1912
847.5 2040.55
848.5 1985.36
849.5 1798.45
850.5 1842.82
851.5 1878.64
852.5 1821.27
853.5 1951.91
854.5 1888.73
855.5 1815.36
856.5 1940.91
857.5 1923.64
858.5 1845.18
859.5 1767.82
860.5 1721.91
861.5 1715.45
862.5 1695.73
863.5 1990.27
864.5 2228.73
865.5 1985.45
866.5 1857.91
867.5 1969.09
868.5 1736.55
869.5 1809.82
870.5 2038
871.5 1843.36
872.5 1933.45
873.5 1853.73
874.5 1812.55
875.5 1851.82
876.5 1847.27
877.5 1804.09
878.5 1771.45
879.5 1932.55
880.5 1912.36
881.5 1877.27
882.5 2033.64
883.5 1867.18
884.5 1870.64
885.5 2001.55
886.5 1985.73
887.5 2116.09
888.5 1880.73
889.5 1990.09
890.5 2013.45
891.5 2090.18
892.5 2211.73
893.5 2235.64
894.5 2053.64
895.5 2402.27
896.5 3245.09
897.5 3690.82
898.5 3340.09
899.5 2710.73
900.5 2442.55
901.5 2630.36
902.5 2488.73
903.5 2555.27
904.5 2382.09
905.5 2312.73
906.5 2241.82
907.5 2438.73
908.5 2032.64
909.5 2479.82
910.5 2308.09
911.5 2580.36
912.5 2249.36
913.5 2376.64
914.5 2126.91
915.5 2206.82
916.5 2071.45
917.5 2247.64
918.5 1941.09
919.5 2148.45
920.5 2024.73
921.5 2307.36
922.5 2368.18
923.5 2144.73
924.5 2364.64
925.5 2292.45
926.5 2230.64
927.5 2248.82
928.5 2403
929.5 2424.91
930.5 2316.36
931.5 2466.27
932.5 2386.64
933.5 2439.82
934.5 2327.82
935.5 2494.18
936.5 2436
937.5 2314.82
938.5 2382.36
939.5 2404
940.5 2357.09
941.5 2310.82
942.5 2420.91
943.5 2347.55
944.5 2586.91
945.5 2156.45
946.5 2243.09
947.5 2107.36
948.5 2208.45
949.5 2193.73
950.5 1818
951.5 1923.55
952.5 1919
953.5 1883.27
954.5 1881.73
955.5 1835.27
956.5 1749.91
957.5 1821.73
958.5 1814.36
959.5 1633.18
960.5 1513.91
961.5 1627.36
962.5 1807.45
963.5 1581.64
964.5 1702.36
965.5 1722.27
966.5 1615.09
967.5 1621
968.5 1641.73
969.5 1726
970.5 1488.18
971.5 1634.55
972.5 1593.27
973.5 1662.91
974.5 1746.18
975.5 1689.45
976.5 1825.91
977.5 1984.64
978.5 1639.64
979.5 1522.45
980.5 1428.82
981.5 1578.18
982.5 1374.55
983.5 1661.55
984.5 1477.27
985.5 1437.18
986.5 1676.18
987.5 1520.09
988.5 1456.18
989.5 1409.91
990.5 1589.82
991.5 1618.73
992.5 1573.09
993.5 1564.27
994.5 1605
995.5 1538.18
996.5 1718.18
997.5 1449.09
998.5 1540.91
999.5 1356.36
1000.5 1379.91
1001.5 1160.36
1002.5 1136.45
1003.5 1305.73
1004.5 1284.73
1005.5 1293
1006.5 1399.09
1007.5 1555.73
1008.5 1667.45
1009.5 1590.45
1010.5 1646.91
1011.5 1599.82
1012.5 1299.91
1013.5 1331.91
1014.5 1387.82
1015.5 1118.18
1016.5 1377.09
1017.5 1408.27
1018.5 1524
1019.5 2069.45
1020.5 1845.18
1021.5 1462.36
1022.5 1336.91
1023.5 1409.91
1024.5 1661.55
1025.5 1372.45
1026.5 1158.27
1027.5 1239.18
1028.5 1101.18
1029.5 1122.64
1030.5 1217.36
1031.5 1077.36
1032.5 1252
1033.5 1207.91
1034.5 1032.64
1035.5 1072.73
1036.5 1214.18
1037.5 1234.64
1038.5 1150.27
1039.5 1219.82
1040.5 1247.64
1041.5 1049.36
1042.5 1133.82
1043.5 1087.18
1044.5 1019.36
1045.5 1077.36
1046.5 1026.91
1047.5 1109.91
1048.5 960.636
1049.5 906.545
1050.5 1008.82
1051.5 955.909
1052.5 1007.18
1053.5 1111.18
1054.5 1203.36
1055.5 1401.36
1056.5 1397.18
1057.5 1143.82
1058.5 1070.27
1059.5 965.636
1060.5 949.636
1061.5 962.909
1062.5 1031
1063.5 1104.55
1064.5 1101.36
1065.5 1195.91
1066.5 1154.27
1067.5 1025.18
1068.5 1018.18
1069.5 1060.73
1070.5 812.636
1071.5 914.091
1072.5 942.181
1073.5 1118.36
1074.5 451.181
1075.5 817.999
1076.5 827.909
1077.5 1107
1078.5 989.545
1079.5 869.818
1080.5 884.636
1081.5 1002
1082.5 1201.09
1083.5 1137.73
1084.5 1059.45
1085.5 913.636
1086.5 1023.55
1087.5 850.818
1088.5 929.273
1089.5 881.454
1090.5 943.454
1091.5 838.091
1092.5 946.545
1093.5 844.091
1094.5 874.273
1095.5 897.818
1096.5 798.091
1097.5 821.545
1098.5 810
1099.5 826.454
1100.5 985.091
1101.5 1018.64
1102.5 914.636
1103.5 850.182
1104.5 918.364
1105.5 928.091
1106.5 872.091
1107.5 980.909
1108.5 881.454
1109.5 808.273
1110.5 902.182
1111.5 909.545
1112.5 851.273
1113.5 1034.27
1114.5 952.454
1115.5 962.545
1116.5 1002.82
1117.5 1055.09
1118.5 980.364
1119.5 1116.09
1120.5 1176.91
1121.5 1280.91
1122.5 1888.73
1123.5 5858.64
1124.5 20152.8
1125.5 46787
1126.5 52023.1
1127.5 24463.7
1128.5 5838.91
1129.5 1700.91
1130.5 1037.45
1131.5 835.818
1132.5 866.727
1133.5 800.182
1134.5 808.182
1135.5 835.091
1136.5 666.545
1137.5 768.273
1138.5 850.454
1139.5 805.091
1140.5 754.636
1141.5 879.182
1142.5 701.818
1143.5 781.182
1144.5 722.182
1145.5 854.182
1146.5 893.091
1147.5 832.909
1148.5 849.636
1149.5 1025.64
1150.5 950.545
1151.5 939.909
1152.5 1349.45
1153.5 3581.27
1154.5 13899
1155.5 48458.8
1156.5 104981
1157.5 104665
1158.5 43688.5
1159.5 9321.55
1160.5 2223.18
1161.5 986.182
1162.5 545.545
1163.5 593.182
1164.5 570.636
1165.5 619.091
1166.5 598.545
1167.5 551.364
1168.5 548.364
1169.5 547.454
1170.5 683
1171.5 1132.45
1172.5 2494.45
1173.5 5203.91
1174.5 5126.18
1175.5 2392.91
1176.5 903.545
1177.5 556.727
1178.5 489.727
1179.5 536.091
1180.5 600.727
1181.5 592.182
1182.5 480
1183.5 476.364
1184.5 466.454
1185.5 480
1186.5 533.636
1187.5 439.818
1188.5 474.636
1189.5 481.818
1190.5 558.182
1191.5 404.364
1192.5 499.818
1193.5 471
1194.5 445
1195.5 455.909
1196.5 556.545
1197.5 541.091
1198.5 476.454
1199.5 565.545
1200.5 571.273
1201.5 492.818
1202.5 458.454
1203.5 527.454
1204.5 455.182
1205.5 432.364
1206.5 481.182
1207.5 472.727
1208.5 451.364
1209.5 552.364
1210.5 509.454
1211.5 524.636
1212.5 488.727
1213.5 651.818
1214.5 581.727
1215.5 656.818
1216.5 585.636
1217.5 448.636
1218.5 503.636
1219.5 440.909
1220.5 474.545
1221.5 821.909
1222.5 846.273
1223.5 891.636
1224.5 690.636
1225.5 601
1226.5 391.364
1227.5 446.454
1228.5 514.364
1229.5 439.182
1230.5 502.545
1231.5 460
1232.5 519.545
1233.5 603
1234.5 622
1235.5 521.909
1236.5 471.545
1237.5 463.091
1238.5 520.454
1239.5 476
1240.5 507.818
1241.5 596.909
1242.5 518.727
1243.5 432.818
1244.5 507.182
1245.5 452.636
1246.5 481.364
1247.5 550
1248.5 528.364
1249.5 459.909
1250.5 459.909
1251.5 421.909
1252.5 462.091
1253.5 449.182
1254.5 489.364
1255.5 497.273
1256.5 473.909
1257.5 419.545
1258.5 402.182
1259.5 352.454
1260.5 529.818
1261.5 394.091
1262.5 429
1263.5 478.545
1264.5 514.545
1265.5 517.636
1266.5 493.273
1267.5 584.909
1268.5 565.454
1269.5 661.273
1270.5 581.091
1271.5 692.545
1272.5 710.364
1273.5 739.545
1274.5 715.182
1275.5 702.818
1276.5 558.364
1277.5 525.545
1278.5 561.636
1279.5 426.818
1280.5 451.909
1281.5 462.454
1282.5 446.909
1283.5 478.454
1284.5 433.818
1285.5 567.545
1286.5 568.818
1287.5 482.727
1288.5 407.091
1289.5 438.091
1290.5 449.636
1291.5 398.909
1292.5 500.454
1293.5 487.545
1294.5 438.909
1295.5 526.364
1296.5 520.455
1297.5 572.545
1298.5 458.455
1299.5 504.545
1300.5 430.818
1301.5 448.273
1302.5 509.091
1303.5 506.909
1304.5 510.545
1305.5 656.364
1306.5 888
1307.5 933.182
1308.5 858.091
1309.5 627.818
1310.5 532
1311.5 460.182
1312.5 474.545
1313.5 558.727
1314.5 483.454
1315.5 478.636
1316.5 543.454
1317.5 537.091
1318.5 483.727
1319.5 404.182
1320.5 477.455
1321.5 511.182
1322.5 572.727
1323.5 552.091
1324.5 579.636
1325.5 485.818
1326.5 507.818
1327.5 416.455
1328.5 434.364
1329.5 335.454
1330.5 206
1331.5 143.182
1332.5 123.182
1333.5 99.6363
1334.5 226.364
1335.5 415
1336.5 385.091
1337.5 289.454
1338.5 146.091
1339.5 104.818
1340.5 67.7272
1341.5 279.727
1342.5 773
1343.5 1258.27
1344.5 1419.18
1345.5 1636.82
1346.5 1701.64
1347.5 1410.27
1348.5 1252.73
1349.5 911.454
1350.5 643.091
1351.5 583.273
1352.5 531.364
1353.5 457.454
1354.5 603.545
1355.5 497.091
1356.5 385
1357.5 431.182
1358.5 321.364
1359.5 179.091
1360.5 13.9999
1361.5 -75.6364
1362.5 -81.1819
1363.5 230.182
1364.5 892.182
1365.5 2011.45
1366.5 2266.36
1367.5 1317.18
1368.5 692.636
1369.5 575.727
1370.5 530.273
1371.5 558.091
1372.5 556.091
1373.5 655.364
1374.5 775.545
1375.5 1025.64
1376.5 870.909
1377.5 778
1378.5 590.455
1379.5 513.909
1380.5 559.273
1381.5 616.545
1382.5 681.182
1383.5 590.727
1384.5 545.182
1385.5 454.455
1386.5 449.818
1387.5 405.909
1388.5 511.454
1389.5 548.727
1390.5 544.273
1391.5 499.273
1392.5 483.091
1393.5 481.364
1394.5 433.182
1395.5 370.545
1396.5 461.636
1397.5 499.818
1398.5 489.091
1399.5 463
1400.5 445.182
1401.5 446.818
1402.5 517.818
1403.5 499.455
1404.5 485.545
1405.5 460.636
1406.5 576.545
1407.5 486.273
1408.5 469.091
1409.5 499.182
1410.5 553
1411.5 516.273
1412.5 505.545
1413.5 454.182
1414.5 439.454
1415.5 442
1416.5 546.091
1417.5 682.545
1418.5 1026.91
