# EGG_ProjY_E4208.5(4.5)_B4193.0(3.0)_B4228.5(2.5)
# X axis : Energy (keV) [Y axis]
# Y axis : Counts/1 keV
# N Bins : 12000
# X Min : 0
# X Max : 12000
# X value at the center of the bins
0.5 0
1.5 0
2.5 0
3.5 0
4.5 0
5.5 1.63636
6.5 -10.4545
7.5 4.90909
8.5 7.18182
9.5 20.6364
10.5 29
11.5 -1.18182
12.5 11.3636
13.5 28.1818
14.5 15.4545
15.5 33.6364
16.5 48.8182
17.5 78.5455
18.5 83.9091
19.5 136.364
20.5 162.364
21.5 145.545
22.5 273.273
23.5 212.727
24.5 340
25.5 312.364
26.5 469.364
27.5 413.545
28.5 446
29.5 456.364
30.5 497.545
31.5 581.364
32.5 599.818
33.5 691.545
34.5 646.636
35.5 561.909
36.5 691.182
37.5 699.727
38.5 686.818
39.5 744.182
40.5 701.273
41.5 699.727
42.5 643.273
43.5 670.727
44.5 713.545
45.5 792.818
46.5 689.636
47.5 786.455
48.5 782.909
49.5 720
50.5 719.455
51.5 661.818
52.5 655.364
53.5 722.182
54.5 828.455
55.5 743.091
56.5 913.818
57.5 1045.27
58.5 1251
59.5 1243.64
60.5 930.727
61.5 861.545
62.5 781.273
63.5 780.273
64.5 850
65.5 879.636
66.5 994.636
67.5 1091.27
68.5 964.364
69.5 942
70.5 891.273
71.5 864.273
72.5 930
73.5 1039.64
74.5 1483.45
75.5 1655.64
76.5 1736.27
77.5 1964.36
78.5 1240.55
79.5 895.182
80.5 790.455
81.5 754.273
82.5 759.818
83.5 823.182
84.5 942.364
85.5 926.636
86.5 1196.18
87.5 1445.09
88.5 1171.64
89.5 1014.18
90.5 1057.18
91.5 928.545
92.5 857.455
93.5 815.636
94.5 879.182
95.5 860.273
96.5 952.091
97.5 955.091
98.5 815.182
99.5 891.182
100.5 832.455
101.5 832
102.5 972.909
103.5 800.727
104.5 977.455
105.5 976.182
106.5 865.182
107.5 1038.09
108.5 873.909
109.5 952.909
110.5 886.091
111.5 1009
112.5 950.455
113.5 1091.18
114.5 1013.64
115.5 1083.82
116.5 1078.36
117.5 1043.55
118.5 1241
119.5 1120.09
120.5 1130.91
121.5 1168.09
122.5 1148.45
123.5 1140.73
124.5 1111.55
125.5 1086.64
126.5 1113
127.5 1322.91
128.5 1117.82
129.5 1197.45
130.5 1275
131.5 1062.18
132.5 1075.73
133.5 1148.27
134.5 1241
135.5 1134.36
136.5 1202.36
137.5 1006.73
138.5 1175
139.5 1132.64
140.5 1360.45
141.5 1109.18
142.5 1071.91
143.5 1038.09
144.5 991.455
145.5 1200.18
146.5 1038.55
147.5 1097.91
148.5 1063.55
149.5 1191.91
150.5 1151.55
151.5 1073.82
152.5 1119.45
153.5 1001.27
154.5 1019.55
155.5 1213.45
156.5 1206.91
157.5 1155.09
158.5 1164
159.5 1171.73
160.5 1183.91
161.5 1169.09
162.5 1215.09
163.5 1355.91
164.5 1268.18
165.5 1308.18
166.5 1362.27
167.5 1395.36
168.5 1256.45
169.5 1297.18
170.5 1247.55
171.5 1370.09
172.5 1279.27
173.5 1461.82
174.5 1256.82
175.5 1277.82
176.5 1227.64
177.5 1225.27
178.5 1096
179.5 1317.64
180.5 1191.91
181.5 1168.27
182.5 1332.55
183.5 1373.73
184.5 1141.36
185.5 1427.45
186.5 1212.09
187.5 1287.36
188.5 1109.91
189.5 1143.36
190.5 1189.45
191.5 1174.45
192.5 1152.18
193.5 1297.09
194.5 1491.64
195.5 1276.27
196.5 1348.73
197.5 1300.73
198.5 1491.45
199.5 1446.82
200.5 1204.18
201.5 1213.73
202.5 1242.82
203.5 1214.64
204.5 1075.55
205.5 1216.82
206.5 1299
207.5 1173
208.5 1284.64
209.5 1458.45
210.5 1597.91
211.5 1610
212.5 1481.64
213.5 1335.73
214.5 1428.09
215.5 1452.64
216.5 1447.09
217.5 1422.36
218.5 1506.91
219.5 1630
220.5 1516.73
221.5 1548.64
222.5 1459.09
223.5 1459.82
224.5 1613.18
225.5 1357.55
226.5 1354.18
227.5 1271.09
228.5 1127.73
229.5 1162.45
230.5 1276.09
231.5 1353.36
232.5 1393.55
233.5 1118.73
234.5 1200.64
235.5 1327.09
236.5 1260.18
237.5 1187.18
238.5 1288.91
239.5 1378.18
240.5 1155.27
241.5 1088.55
242.5 1235.91
243.5 1392.36
244.5 1525.82
245.5 1697.45
246.5 1755.64
247.5 1929.91
248.5 1934.91
249.5 1919.18
250.5 1901.45
251.5 1880.64
252.5 1671.45
253.5 1567.27
254.5 1426.91
255.5 1483.73
256.5 1430.91
257.5 1511.64
258.5 1296.45
259.5 1262.73
260.5 1039.27
261.5 884.182
262.5 1043
263.5 1106.82
264.5 906.545
265.5 999
266.5 877.727
267.5 890.273
268.5 969.091
269.5 923.182
270.5 1051.09
271.5 964.727
272.5 1107.82
273.5 1045.91
274.5 1059.36
275.5 942.727
276.5 998.545
277.5 1024.36
278.5 1158.45
279.5 1097.36
280.5 1083.27
281.5 1052.82
282.5 1058.36
283.5 1113.82
284.5 1071.64
285.5 1038.45
286.5 1036.64
287.5 1158.18
288.5 1158.27
289.5 1106.64
290.5 1131.09
291.5 1104.91
292.5 988.818
293.5 1175.09
294.5 983
295.5 995.455
296.5 948.273
297.5 956.636
298.5 1153.09
299.5 1375.09
300.5 1103.82
301.5 894.455
302.5 971.455
303.5 973.455
304.5 1042.91
305.5 923.364
306.5 967.091
307.5 1021.64
308.5 892.091
309.5 933.818
310.5 969.636
311.5 955.545
312.5 1003.27
313.5 1072.55
314.5 1058
315.5 999.455
316.5 1139.09
317.5 1052
318.5 909.364
319.5 967.364
320.5 993.727
321.5 957.091
322.5 894.273
323.5 968.909
324.5 888.364
325.5 950.091
326.5 772.091
327.5 812.636
328.5 707.727
329.5 880.636
330.5 856.545
331.5 904
332.5 854.545
333.5 958.273
334.5 741.273
335.5 759.636
336.5 793.182
337.5 732.636
338.5 953.091
339.5 968
340.5 941.182
341.5 998.818
342.5 1051.91
343.5 993.364
344.5 1096.18
345.5 1018.27
346.5 1085.55
347.5 949.091
348.5 936.182
349.5 1139.36
350.5 952
351.5 1079.64
352.5 991.091
353.5 848.818
354.5 902.818
355.5 975.636
356.5 848.273
357.5 962.091
358.5 901
359.5 853.545
360.5 750.364
361.5 853.636
362.5 778.364
363.5 755.636
364.5 833.727
365.5 950.182
366.5 909.727
367.5 799
368.5 905.455
369.5 853.182
370.5 793.727
371.5 764.909
372.5 875.727
373.5 776.091
374.5 847.273
375.5 748.545
376.5 897.727
377.5 838.091
378.5 847
379.5 935.909
380.5 841
381.5 785.455
382.5 777.818
383.5 730.273
384.5 712.273
385.5 682.727
386.5 720.727
387.5 758.909
388.5 740.636
389.5 919.545
390.5 1016.27
391.5 804.545
392.5 625.727
393.5 709.364
394.5 639.364
395.5 756.727
396.5 664
397.5 730.091
398.5 821.364
399.5 742.455
400.5 790.545
401.5 882.091
402.5 1089.18
403.5 1764.36
404.5 1872.36
405.5 1102.45
406.5 912.364
407.5 975.727
408.5 938.364
409.5 926.364
410.5 833.636
411.5 958.727
412.5 982.455
413.5 952
414.5 940.364
415.5 961.727
416.5 914.727
417.5 830.091
418.5 743.273
419.5 851
420.5 749.091
421.5 699.636
422.5 562.182
423.5 677
424.5 684.455
425.5 720.727
426.5 706.455
427.5 657.818
428.5 692.455
429.5 665.727
430.5 608.727
431.5 678.091
432.5 721.273
433.5 697.727
434.5 736.455
435.5 735.727
436.5 799.364
437.5 874.182
438.5 901.636
439.5 944
440.5 913
441.5 1002.64
442.5 933.909
443.5 982.182
444.5 906.636
445.5 814
446.5 852
447.5 843.091
448.5 728.273
449.5 752.727
450.5 762.636
451.5 662.727
452.5 693.909
453.5 607.909
454.5 747
455.5 595.364
456.5 630.091
457.5 669.182
458.5 580
459.5 605.909
460.5 616
461.5 676.091
462.5 734.727
463.5 722.727
464.5 750.727
465.5 652
466.5 715.545
467.5 661.636
468.5 722.545
469.5 752.091
470.5 678.545
471.5 769
472.5 803.455
473.5 819.364
474.5 860.091
475.5 778.545
476.5 945.364
477.5 803
478.5 844.909
479.5 727.091
480.5 930.909
481.5 770.727
482.5 785.455
483.5 769.364
484.5 749.455
485.5 623.455
486.5 684.182
487.5 649.273
488.5 644.818
489.5 692.091
490.5 690.455
491.5 659.455
492.5 654.091
493.5 606.455
494.5 663.545
495.5 648.818
496.5 646
497.5 673.909
498.5 687
499.5 667
500.5 624.818
501.5 657
502.5 684.909
503.5 718.091
504.5 662.727
505.5 761
506.5 938.091
507.5 1109.82
508.5 1540.91
509.5 2472.82
510.5 3404.91
511.5 3105.27
512.5 2246.27
513.5 1329.36
514.5 886.545
515.5 713.909
516.5 736.091
517.5 622.364
518.5 689.182
519.5 612.727
520.5 659.545
521.5 748.727
522.5 697.545
523.5 577.455
524.5 702.636
525.5 662.909
526.5 672.455
527.5 659.455
528.5 670.364
529.5 696.091
530.5 644.364
531.5 669.545
532.5 701.909
533.5 665.364
534.5 631.727
535.5 659.727
536.5 624
537.5 776.364
538.5 713.273
539.5 777.273
540.5 722.455
541.5 600.727
542.5 686.727
543.5 660.364
544.5 669
545.5 645.727
546.5 654.273
547.5 682.182
548.5 642
549.5 732.091
550.5 679.727
551.5 668.182
552.5 621.091
553.5 651.818
554.5 752.273
555.5 674
556.5 679.273
557.5 605.545
558.5 653.455
559.5 689.091
560.5 683
561.5 632.909
562.5 651
563.5 753.091
564.5 715.818
565.5 640.636
566.5 724.091
567.5 606.818
568.5 631.636
569.5 555.273
570.5 671.091
571.5 702
572.5 532.909
573.5 611.727
574.5 553.909
575.5 660.364
576.5 582.545
577.5 565.364
578.5 582.909
579.5 520.636
580.5 614.636
581.5 625.545
582.5 477.909
583.5 438.545
584.5 575.818
585.5 607.727
586.5 599.909
587.5 587.909
588.5 567.727
589.5 616.091
590.5 568.091
591.5 657.091
592.5 741.545
593.5 675.727
594.5 719.545
595.5 726.364
596.5 622.636
597.5 640.182
598.5 650.727
599.5 641.636
600.5 652.636
601.5 608.636
602.5 600.636
603.5 629.636
604.5 652.455
605.5 661.636
606.5 726.909
607.5 606.909
608.5 545.182
609.5 560.273
610.5 585.091
611.5 619.727
612.5 466.636
613.5 570.364
614.5 549
615.5 511.091
616.5 531
617.5 587
618.5 585.091
619.5 618.182
620.5 534
621.5 570.455
622.5 603.818
623.5 638.818
624.5 528.273
625.5 578.364
626.5 728.909
627.5 1369.55
628.5 2271.09
629.5 1630.64
630.5 864.273
631.5 678.091
632.5 637.727
633.5 586.455
634.5 624.455
635.5 830.364
636.5 1213.55
637.5 1664.55
638.5 1292.82
639.5 783.182
640.5 632.273
641.5 654.545
642.5 559.909
643.5 656.818
644.5 608.182
645.5 569.273
646.5 589.818
647.5 593
648.5 828.182
649.5 1488.27
650.5 2177.18
651.5 1907.82
652.5 1176.91
653.5 1069.27
654.5 914
655.5 633.455
656.5 665.182
657.5 526.818
658.5 531.727
659.5 514.273
660.5 577.273
661.5 533
662.5 658.727
663.5 497.545
664.5 662.818
665.5 614.455
666.5 653.636
667.5 631.818
668.5 526.091
669.5 649.545
670.5 661.727
671.5 558.091
672.5 542.727
673.5 554.636
674.5 579
675.5 606.273
676.5 657.818
677.5 565.364
678.5 623.727
679.5 586.636
680.5 564.909
681.5 542.182
682.5 548.364
683.5 597.455
684.5 505.727
685.5 591.091
686.5 530.273
687.5 617.636
688.5 514.364
689.5 452.455
690.5 573.364
691.5 535.455
692.5 526.909
693.5 562.818
694.5 532.364
695.5 540.818
696.5 602.636
697.5 599.455
698.5 617.636
699.5 597.545
700.5 604.727
701.5 546.636
702.5 695.091
703.5 669.455
704.5 670.455
705.5 574.364
706.5 594.909
707.5 620.182
708.5 528.364
709.5 620.091
710.5 617.091
711.5 610.636
712.5 581.364
713.5 565.091
714.5 535.455
715.5 537.636
716.5 536.636
717.5 477.364
718.5 591.091
719.5 535
720.5 596.091
721.5 602
722.5 613.909
723.5 539.545
724.5 494.909
725.5 601
726.5 618.091
727.5 613.091
728.5 623.545
729.5 585.091
730.5 548
731.5 618.455
732.5 530.727
733.5 648.273
734.5 562.182
735.5 574.091
736.5 627.545
737.5 640.091
738.5 618.273
739.5 579
740.5 623.818
741.5 592.182
742.5 581.727
743.5 597.273
744.5 595.727
745.5 551.182
746.5 611.636
747.5 598.818
748.5 629.727
749.5 616.091
750.5 578.818
751.5 581.273
752.5 491.182
753.5 561.182
754.5 620.182
755.5 563.727
756.5 567.545
757.5 598.364
758.5 954.909
759.5 2528.55
760.5 6395.91
761.5 7008.64
762.5 3223.82
763.5 1177.18
764.5 664.091
765.5 576.909
766.5 596.091
767.5 563.273
768.5 616.182
769.5 567.364
770.5 581.636
771.5 637.182
772.5 639.091
773.5 617.455
774.5 607.818
775.5 556.727
776.5 635
777.5 519
778.5 663.182
779.5 620.455
780.5 562
781.5 609.909
782.5 546.727
783.5 562.818
784.5 606.636
785.5 521.818
786.5 588.455
787.5 625.545
788.5 542.727
789.5 612.364
790.5 638
791.5 570.727
792.5 523.091
793.5 645.545
794.5 666.545
795.5 590.455
796.5 652
797.5 572.818
798.5 592.636
799.5 581.273
800.5 592.727
801.5 598.364
802.5 591.273
803.5 637.182
804.5 602.273
805.5 673
806.5 766
807.5 760.636
808.5 648.909
809.5 661.273
810.5 623.455
811.5 508.091
812.5 512.455
813.5 629.636
814.5 559.364
815.5 604.818
816.5 611.455
817.5 593.273
818.5 619.545
819.5 625.182
820.5 619.818
821.5 608.909
822.5 590.091
823.5 641.091
824.5 680.545
825.5 601.727
826.5 560.636
827.5 573.545
828.5 643.273
829.5 694.182
830.5 638
831.5 683.727
832.5 637.455
833.5 516.364
834.5 609.818
835.5 573.545
836.5 595.909
837.5 602
838.5 584.727
839.5 532
840.5 592.909
841.5 668.818
842.5 646.455
843.5 664.545
844.5 673.091
845.5 636.545
846.5 674.909
847.5 647.818
848.5 604.545
849.5 531.364
850.5 666.455
851.5 687.182
852.5 676.727
853.5 669.455
854.5 601.818
855.5 684.364
856.5 668.273
857.5 692
858.5 586.455
859.5 635.818
860.5 646.818
861.5 621.636
862.5 663.636
863.5 706.727
864.5 703
865.5 680
866.5 753.273
867.5 1085.64
868.5 1859.09
869.5 2033
870.5 1411.82
871.5 906.909
872.5 690.091
873.5 664.545
874.5 692.364
875.5 663.545
876.5 949.636
877.5 1336.55
878.5 1433.73
879.5 954.636
880.5 843.182
881.5 793.455
882.5 731.455
883.5 743.273
884.5 725.636
885.5 709.091
886.5 676.091
887.5 652.455
888.5 755.727
889.5 732.545
890.5 720.727
891.5 729.545
892.5 683.727
893.5 733.273
894.5 777.727
895.5 785.091
896.5 710.455
897.5 779.273
898.5 825.909
899.5 737.182
900.5 775.091
901.5 783.364
902.5 763.636
903.5 749.182
904.5 795.091
905.5 741.636
906.5 748.273
907.5 825.273
908.5 772.364
909.5 846.636
910.5 847.818
911.5 819.909
912.5 761.545
913.5 810.727
914.5 866.545
915.5 781.182
916.5 865.818
917.5 736.636
918.5 741.182
919.5 829.727
920.5 766.091
921.5 741.818
922.5 795.909
923.5 788.364
924.5 807.818
925.5 759.727
926.5 750.909
927.5 820.909
928.5 838.727
929.5 749.636
930.5 836.727
931.5 806.727
932.5 786.364
933.5 845.091
934.5 790.364
935.5 795.364
936.5 765.091
937.5 799.182
938.5 757.182
939.5 797.273
940.5 736.636
941.5 691.545
942.5 764.364
943.5 760.545
944.5 697.909
945.5 783
946.5 685.273
947.5 694.545
948.5 646.364
949.5 633.364
950.5 675
951.5 732.364
952.5 665.727
953.5 626.182
954.5 627
955.5 605.182
956.5 619.364
957.5 687
958.5 607.455
959.5 609.091
960.5 555.364
961.5 577.091
962.5 611.273
963.5 585.636
964.5 977.455
965.5 1824.27
966.5 2678.55
967.5 1790.82
968.5 931.545
969.5 538.818
970.5 475.909
971.5 551.182
972.5 522.909
973.5 465
974.5 540.545
975.5 462.182
976.5 566.364
977.5 497.727
978.5 540.727
979.5 481.545
980.5 465.909
981.5 586.182
982.5 493.909
983.5 477.091
984.5 570.545
985.5 480.091
986.5 507.636
987.5 517.182
988.5 492.182
989.5 509
990.5 513.455
991.5 492.364
992.5 546.455
993.5 469.909
994.5 429.364
995.5 438.545
996.5 478.364
997.5 432.727
998.5 491.727
999.5 677.818
1000.5 1453.91
1001.5 2570.64
1002.5 2285.55
1003.5 1141.09
1004.5 556.364
1005.5 467.727
1006.5 424
1007.5 429.909
1008.5 372.455
1009.5 472.364
1010.5 364.273
1011.5 426.909
1012.5 421.818
1013.5 387.636
1014.5 509.727
1015.5 422.545
1016.5 427.909
1017.5 513.818
1018.5 402.455
1019.5 379.636
1020.5 426.545
1021.5 399.364
1022.5 507.636
1023.5 580.636
1024.5 772.273
1025.5 649.455
1026.5 492.364
1027.5 403.364
1028.5 362
1029.5 388.909
1030.5 420.909
1031.5 368
1032.5 378.727
1033.5 375.364
1034.5 311.091
1035.5 358.091
1036.5 311.182
1037.5 322.636
1038.5 384.364
1039.5 329.727
1040.5 409.818
1041.5 349.636
1042.5 357.909
1043.5 394.727
1044.5 357.455
1045.5 328.818
1046.5 342.545
1047.5 334.091
1048.5 356
1049.5 319.909
1050.5 311
1051.5 312.727
1052.5 305.091
1053.5 347.455
1054.5 305.545
1055.5 340
1056.5 260.909
1057.5 310.818
1058.5 357.909
1059.5 290.273
1060.5 354.727
1061.5 314
1062.5 321.636
1063.5 273.818
1064.5 331.909
1065.5 333
1066.5 288.727
1067.5 348.364
1068.5 309
1069.5 249.182
1070.5 348.182
1071.5 684.909
1072.5 1493.82
1073.5 3303.73
1074.5 3967.09
1075.5 2143.18
1076.5 722.182
1077.5 336.909
1078.5 318.727
1079.5 293.091
1080.5 262.909
1081.5 233.455
1082.5 312.182
1083.5 304.273
1084.5 255.273
1085.5 230
1086.5 282.909
1087.5 218.182
1088.5 284.818
1089.5 280.091
1090.5 300.545
1091.5 326.727
1092.5 301.182
1093.5 429.364
1094.5 467.364
1095.5 398.091
1096.5 324.455
1097.5 288.545
1098.5 279.455
1099.5 258
1100.5 235.091
1101.5 302.364
1102.5 271.727
1103.5 259.364
1104.5 297.909
1105.5 253.182
1106.5 264.636
1107.5 246.273
1108.5 276.727
1109.5 255.091
1110.5 291.818
1111.5 220.091
1112.5 295.091
1113.5 254
1114.5 259.182
1115.5 253.636
1116.5 317.455
1117.5 264.273
1118.5 194.273
1119.5 286
1120.5 324.727
1121.5 384
1122.5 790.818
1123.5 2468.45
1124.5 9171.64
1125.5 21790.4
1126.5 24343.2
1127.5 11040.9
1128.5 2575.64
1129.5 575.545
1130.5 309.727
1131.5 299.182
1132.5 226
1133.5 246.636
1134.5 259.364
1135.5 231.182
1136.5 184.909
1137.5 217.455
1138.5 244.636
1139.5 195.545
1140.5 324.545
1141.5 200
1142.5 271.091
1143.5 268
1144.5 247.364
1145.5 279.909
1146.5 273.273
1147.5 306.182
1148.5 231.455
1149.5 244.818
1150.5 238.091
1151.5 298.182
1152.5 411.727
1153.5 1128.09
1154.5 4406.55
1155.5 14881.6
1156.5 32946.5
1157.5 32979.5
1158.5 13981.3
1159.5 2917
1160.5 617.727
1161.5 247.364
1162.5 154.091
1163.5 111.273
1164.5 133.636
1165.5 133.636
1166.5 138.818
1167.5 127.182
1168.5 105.182
1169.5 140.273
1170.5 153.636
1171.5 124.636
1172.5 124.091
1173.5 164
1174.5 135.636
1175.5 153.364
1176.5 133.636
1177.5 144.091
1178.5 115.818
1179.5 111.727
1180.5 114.545
1181.5 153.545
1182.5 176.091
1183.5 194.636
1184.5 151.727
1185.5 259.909
1186.5 384
1187.5 659.273
1188.5 826.364
1189.5 686.455
1190.5 443.273
1191.5 230.273
1192.5 133.909
1193.5 146.273
1194.5 134.545
1195.5 83.7273
1196.5 165.455
1197.5 103
1198.5 116.727
1199.5 133.818
1200.5 112.455
1201.5 119.545
1202.5 122.636
1203.5 145.273
1204.5 89.2727
1205.5 141.727
1206.5 228.364
1207.5 196.909
1208.5 189.273
1209.5 155.636
1210.5 117.455
1211.5 148.182
1212.5 102.727
1213.5 154.727
1214.5 142.727
1215.5 113
1216.5 159.545
1217.5 119.818
1218.5 120.818
1219.5 159.545
1220.5 147.818
1221.5 137.818
1222.5 88.5455
1223.5 113.364
1224.5 83.6364
1225.5 147.636
1226.5 151.091
1227.5 169.091
1228.5 151.273
1229.5 141.364
1230.5 129.182
1231.5 78.6364
1232.5 166.545
1233.5 97.7273
1234.5 107.273
1235.5 113.545
1236.5 112.727
1237.5 116.545
1238.5 150.182
1239.5 108
1240.5 94.1818
1241.5 131.818
1242.5 134.818
1243.5 93.4545
1244.5 131.455
1245.5 107.545
1246.5 137.909
1247.5 97.3636
1248.5 131.273
1249.5 102.909
1250.5 148.636
1251.5 91.9091
1252.5 102.909
1253.5 126.182
1254.5 101.636
1255.5 169.364
1256.5 144.818
1257.5 138.909
1258.5 144
1259.5 157.636
1260.5 185.636
1261.5 258.273
1262.5 289.909
1263.5 292.545
1264.5 188.545
1265.5 213.727
1266.5 216.273
1267.5 275.818
1268.5 196.455
1269.5 245.182
1270.5 133.909
1271.5 152.818
1272.5 97.3636
1273.5 136.636
1274.5 88.1818
1275.5 148.818
1276.5 191.182
1277.5 115.091
1278.5 134.909
1279.5 124.182
1280.5 96.5455
1281.5 132.091
1282.5 170.636
1283.5 137.364
1284.5 109.545
1285.5 137.636
1286.5 145
1287.5 124.091
1288.5 135.818
1289.5 127.091
1290.5 123.909
1291.5 118.727
1292.5 133.182
1293.5 129.455
1294.5 130.091
1295.5 83.7273
1296.5 109.545
1297.5 114.818
1298.5 105.182
1299.5 105.455
1300.5 131.727
1301.5 160
1302.5 128
1303.5 102.182
1304.5 102.273
1305.5 117.636
1306.5 125.818
1307.5 97.0909
1308.5 62
1309.5 47.5455
1310.5 95.1818
1311.5 89.1818
1312.5 103.909
1313.5 156.182
1314.5 134.545
1315.5 101.545
1316.5 153.818
1317.5 120.545
1318.5 96.3636
1319.5 97.0909
1320.5 91.7273
1321.5 119.727
1322.5 90.8182
1323.5 115.636
1324.5 145.545
1325.5 108.364
1326.5 96
1327.5 150.727
1328.5 109.455
1329.5 106.909
1330.5 106.273
1331.5 148.636
1332.5 76.9091
1333.5 164.727
1334.5 134
1335.5 132.091
1336.5 115.364
1337.5 136.091
1338.5 118
1339.5 112.182
1340.5 108.182
1341.5 115.545
1342.5 103.727
1343.5 118.818
1344.5 130
1345.5 130
1346.5 115.909
1347.5 158.727
1348.5 155.455
1349.5 127.636
1350.5 114
1351.5 144.182
1352.5 107.364
1353.5 134.727
1354.5 85.5455
1355.5 91.8182
1356.5 109.818
1357.5 91.0909
1358.5 130.727
1359.5 109.818
1360.5 128
1361.5 110.818
1362.5 80.5455
1363.5 119.182
1364.5 123.727
1365.5 171.818
1366.5 164.091
1367.5 154.545
1368.5 141.273
1369.5 94.5455
1370.5 117.727
1371.5 143.727
1372.5 198.818
1373.5 186.909
1374.5 223.727
1375.5 175.182
1376.5 203.909
1377.5 164.182
1378.5 198.909
1379.5 243.455
1380.5 225.727
1381.5 128.364
1382.5 144.182
1383.5 152.455
1384.5 130.182
1385.5 97.5455
1386.5 77.5455
1387.5 126.273
1388.5 106.455
1389.5 119
1390.5 145.455
1391.5 92.7273
1392.5 91.3636
1393.5 130
1394.5 109.727
1395.5 99.6364
1396.5 125.636
1397.5 140
1398.5 123.182
1399.5 94.2727
1400.5 181.182
1401.5 194.273
1402.5 159.545
1403.5 123.091
1404.5 117.182
1405.5 126.727
1406.5 111.909
1407.5 122.273
1408.5 166
1409.5 98.4545
1410.5 71
1411.5 125.636
1412.5 89.3636
1413.5 109
1414.5 116.727
1415.5 130.545
1416.5 94.1818
1417.5 113.727
1418.5 162.273
1419.5 164.455
1420.5 160.727
1421.5 113
1422.5 105.636
1423.5 88.4545
1424.5 115
1425.5 151.727
1426.5 166.091
1427.5 297.182
1428.5 430.455
1429.5 310.182
1430.5 194.636
