# EGG_ProjY_E1541.5(5.5)_B1533.0(2.0)_B1554.5(1.5)
# X axis : Energy (keV) [Y axis]
# Y axis : Counts/1 keV
# N Bins : 12000
# X Min : 0
# X Max : 12000
# X value at the center of the bins
0.5 0
1.5 0
2.5 0
3.5 0
4.5 0
5.5 31
6.5 -1.71428
7.5 9.85715
8.5 38.8571
9.5 12.5714
10.5 16.1429
11.5 43.4286
12.5 49.2857
13.5 32.4286
14.5 94.5714
15.5 53.4286
16.5 50.8572
17.5 44.7143
18.5 218.429
19.5 261.143
20.5 308.857
21.5 216
22.5 379
23.5 522.857
24.5 617.429
25.5 669.571
26.5 1084
27.5 1025.14
28.5 1010.71
29.5 1057.57
30.5 1235.43
31.5 1290.43
32.5 1341
33.5 1309.57
34.5 1210.43
35.5 1177
36.5 1557
37.5 1286.71
38.5 1420.43
39.5 1783.43
40.5 1568.86
41.5 1469.14
42.5 1651
43.5 1777.29
44.5 1369.14
45.5 1817.57
46.5 1777.86
47.5 1635.57
48.5 1449.57
49.5 1681.57
50.5 1663.71
51.5 1729.86
52.5 1615.86
53.5 1813.29
54.5 1767.43
55.5 2053.86
56.5 1958.71
57.5 2361.29
58.5 2870.57
59.5 3142.29
60.5 2476.43
61.5 1938.43
62.5 1873
63.5 1706.71
64.5 1843
65.5 2123.57
66.5 2107.43
67.5 2430.86
68.5 2186.71
69.5 2154.86
70.5 1942.14
71.5 2244.86
72.5 1982.14
73.5 2242.71
74.5 3332.86
75.5 3538.71
76.5 3483.86
77.5 4562.29
78.5 2548.86
79.5 1852.86
80.5 1925.14
81.5 1860.57
82.5 1853.14
83.5 1768.57
84.5 1952.43
85.5 2354
86.5 2912.29
87.5 3573.43
88.5 3111.29
89.5 2672.71
90.5 2526.71
91.5 2109
92.5 2398.14
93.5 2206.29
94.5 2366.43
95.5 2329.71
96.5 2268.29
97.5 2193.14
98.5 1856.43
99.5 1557.29
100.5 1914.71
101.5 1816
102.5 1876.71
103.5 2176.14
104.5 2119.43
105.5 2242.43
106.5 2218.29
107.5 2132.71
108.5 2320
109.5 1964.43
110.5 2099.57
111.5 2258.29
112.5 2249.14
113.5 1990.86
114.5 2031.29
115.5 1941.71
116.5 1940.29
117.5 2137.43
118.5 2264.71
119.5 2267.29
120.5 2347.86
121.5 2232.86
122.5 2418
123.5 2680.14
124.5 2411.29
125.5 2133.57
126.5 2453.14
127.5 2743.57
128.5 2578.71
129.5 2466.43
130.5 2358.57
131.5 2540.29
132.5 2449.71
133.5 2645.86
134.5 2232.14
135.5 2661.57
136.5 2701.57
137.5 2550.71
138.5 2367.57
139.5 2849
140.5 2863
141.5 2464.86
142.5 2637.57
143.5 2672.29
144.5 2723.29
145.5 3140.29
146.5 2476
147.5 2643.57
148.5 2651.29
149.5 2501.29
150.5 2741.29
151.5 2591.71
152.5 2632.43
153.5 2379
154.5 2483
155.5 2530.86
156.5 2293.57
157.5 2241.71
158.5 2268.57
159.5 2483
160.5 2830.14
161.5 2729.14
162.5 2710.14
163.5 2420.29
164.5 2775.29
165.5 3052.29
166.5 3212
167.5 3137.14
168.5 3253.43
169.5 3048.29
170.5 2836.86
171.5 3136.71
172.5 3155.14
173.5 4230.86
174.5 5467.14
175.5 4155.14
176.5 2703.86
177.5 2473.43
178.5 2056
179.5 2600.14
180.5 2968.14
181.5 2509.71
182.5 2444
183.5 3224.86
184.5 3347.29
185.5 3734.43
186.5 3638.86
187.5 3303.57
188.5 3162.43
189.5 2896.29
190.5 2217.14
191.5 2421
192.5 2146.29
193.5 2337
194.5 2631.71
195.5 2392.29
196.5 2731.71
197.5 2939.86
198.5 3125.57
199.5 3400.57
200.5 3224.57
201.5 3254.71
202.5 3229.57
203.5 3235.43
204.5 3274.71
205.5 3320.14
206.5 2889.43
207.5 2934.86
208.5 2829.57
209.5 2974.71
210.5 3185.86
211.5 3091.29
212.5 3567
213.5 3614.57
214.5 3113.86
215.5 3236.43
216.5 3200.14
217.5 2846.14
218.5 2707.57
219.5 2911.29
220.5 2641.14
221.5 2635.29
222.5 2597.43
223.5 1927.57
224.5 1874.43
225.5 2403.43
226.5 3077.71
227.5 3292.43
228.5 3646.43
229.5 3866.57
230.5 3709.43
231.5 4271.71
232.5 4545.71
233.5 4542
234.5 4638
235.5 4730.14
236.5 4385.71
237.5 4331.57
238.5 4057.71
239.5 3786.71
240.5 3787.86
241.5 3292.71
242.5 3007.71
243.5 2369.86
244.5 1622.86
245.5 1677.57
246.5 1433.86
247.5 1873.57
248.5 2393.57
249.5 2568.86
250.5 2810.29
251.5 2747
252.5 3120.71
253.5 2837.86
254.5 2552
255.5 2441
256.5 2521.29
257.5 2245.86
258.5 2815
259.5 2759.86
260.5 2723.86
261.5 2860.57
262.5 3318.43
263.5 3262.86
264.5 3111.86
265.5 3096
266.5 2814.29
267.5 3041.29
268.5 3003.86
269.5 3111.86
270.5 2860.43
271.5 2671.14
272.5 2601.14
273.5 2409.43
274.5 2389.57
275.5 2401.57
276.5 2175.43
277.5 2520.71
278.5 2332.14
279.5 2566.57
280.5 2789.14
281.5 2399.57
282.5 2327.71
283.5 2172
284.5 2314.71
285.5 2319.71
286.5 2398.43
287.5 2032.86
288.5 2258.71
289.5 2205.86
290.5 2209.57
291.5 2446.71
292.5 2270.71
293.5 2374.57
294.5 2458.29
295.5 2521
296.5 2456.43
297.5 2628.57
298.5 2398.57
299.5 2542.57
300.5 2666.71
301.5 2465.71
302.5 2334.43
303.5 2440.14
304.5 2349.29
305.5 2472
306.5 2100
307.5 2317.57
308.5 2137.43
309.5 2119.71
310.5 2081.43
311.5 1986.14
312.5 2374.43
313.5 2174.86
314.5 2092.29
315.5 2083.14
316.5 1155
317.5 837.714
318.5 1040.14
319.5 1317.29
320.5 1965.86
321.5 2106.43
322.5 2475
323.5 2165.71
324.5 2819.29
325.5 2745.86
326.5 3426.57
327.5 3428.14
328.5 3129.43
329.5 2512.57
330.5 1929
331.5 981.286
332.5 565.286
333.5 1165.86
334.5 2172
335.5 2367
336.5 2135.14
337.5 1442.29
338.5 1125.71
339.5 1566.29
340.5 2664.71
341.5 3449.71
342.5 4002.43
343.5 4244.71
344.5 4511.43
345.5 4245.14
346.5 4761
347.5 4364.57
348.5 3911.71
349.5 3524.14
350.5 2667.57
351.5 917
352.5 -221
353.5 -767
354.5 -525.143
355.5 221.286
356.5 801.572
357.5 1410
358.5 1827.14
359.5 1915.71
360.5 2091.14
361.5 2181.43
362.5 2102.57
363.5 2077.86
364.5 1798.43
365.5 1885
366.5 1814.43
367.5 1680.57
368.5 2261.43
369.5 2183.71
370.5 1903.86
371.5 1871.14
372.5 2228.29
373.5 2202.29
374.5 2086.57
375.5 2181.14
376.5 1983.14
377.5 1858
378.5 1732.43
379.5 1556.86
380.5 1965.43
381.5 1933.14
382.5 1652.14
383.5 2127.14
384.5 1619.71
385.5 1723.86
386.5 1078.29
387.5 925.143
388.5 1240.14
389.5 1471.57
390.5 1744.29
391.5 2071.29
392.5 2025
393.5 1983.71
394.5 2062.57
395.5 2068.43
396.5 2200.86
397.5 2584.14
398.5 2609
399.5 2870.43
400.5 2775.43
401.5 2841.57
402.5 2746.43
403.5 3284.86
404.5 3309
405.5 2457.71
406.5 1787.43
407.5 1461.14
408.5 1017.14
409.5 1073.71
410.5 1469.57
411.5 1664.14
412.5 1822.86
413.5 2105.43
414.5 1964.43
415.5 1940.14
416.5 1726.43
417.5 1721
418.5 1622
419.5 1928.71
420.5 1775.86
421.5 1839.57
422.5 2152.29
423.5 1782.57
424.5 1968.14
425.5 1278.43
426.5 1416.43
427.5 1669.29
428.5 1463.14
429.5 1528.86
430.5 1598.14
431.5 1598.57
432.5 1686.14
433.5 1884.14
434.5 2113.14
435.5 1798.86
436.5 1739.86
437.5 1577.43
438.5 1628
439.5 1580.86
440.5 1608.86
441.5 1783.57
442.5 1893.57
443.5 1877.14
444.5 1837.86
445.5 2031.57
446.5 1790.86
447.5 1880.71
448.5 1907
449.5 1931.43
450.5 2016.29
451.5 1861.29
452.5 2039.29
453.5 1838.29
454.5 2094.14
455.5 2059.71
456.5 2112
457.5 2067
458.5 1790.71
459.5 1645.71
460.5 1533.43
461.5 1518.86
462.5 1923.57
463.5 2198.57
464.5 1890.71
465.5 1578.71
466.5 1892.86
467.5 1695.71
468.5 1712
469.5 1987.43
470.5 1846.14
471.5 1970.43
472.5 2013
473.5 1818.43
474.5 1849.86
475.5 1558.29
476.5 1677.86
477.5 1704.43
478.5 1813.14
479.5 1836.86
480.5 1836.57
481.5 1731.14
482.5 1904.29
483.5 1724.14
484.5 1971.29
485.5 1827.57
486.5 1569
487.5 1626.29
488.5 1746.29
489.5 1740.43
490.5 1665.57
491.5 1683.29
492.5 1574
493.5 1749.14
494.5 1754.57
495.5 1508.43
496.5 1661.29
497.5 1441.14
498.5 961.857
499.5 443.286
500.5 761.286
501.5 1247.43
502.5 1469.43
503.5 1612.86
504.5 1797.43
505.5 1770
506.5 2169.57
507.5 2537.14
508.5 3947.86
509.5 6562.14
510.5 9932.86
511.5 9644.14
512.5 6160.86
513.5 3584.43
514.5 2312.86
515.5 1842.43
516.5 1673.86
517.5 1373.71
518.5 1302.43
519.5 1322.43
520.5 1419.57
521.5 1323.57
522.5 1402.14
523.5 1455.86
524.5 1454.29
525.5 1518.43
526.5 1535.29
527.5 1434.14
528.5 1543.86
529.5 1522.14
530.5 1367.14
531.5 1328.29
532.5 1199.14
533.5 1283.86
534.5 1330.71
535.5 1347.57
536.5 1492.43
537.5 1444.71
538.5 1404.14
539.5 1325
540.5 1491
541.5 1372.57
542.5 1627.29
543.5 1649.86
544.5 1350.71
545.5 1621.14
546.5 1575
547.5 1761.29
548.5 1552.29
549.5 1472.14
550.5 1671.57
551.5 1371.43
552.5 1455
553.5 1320.86
554.5 1615.86
555.5 1841.14
556.5 1950.57
557.5 1826.43
558.5 1713.14
559.5 1467.43
560.5 1560.71
561.5 1585
562.5 1607
563.5 1420.14
564.5 1542.43
565.5 1347
566.5 1444.57
567.5 1572
568.5 1506.71
569.5 1464.86
570.5 1477.43
571.5 1535
572.5 1513.57
573.5 1294.86
574.5 1559.71
575.5 1315.29
576.5 1405.86
577.5 1410
578.5 1242.29
579.5 1198.57
580.5 1575.86
581.5 2630
582.5 7861.29
583.5 12677
584.5 7869.14
585.5 2785.43
586.5 1645.14
587.5 1109.57
588.5 1099.14
589.5 1093
590.5 1245.86
591.5 1177.43
592.5 1071.86
593.5 977.429
594.5 400
595.5 460.286
596.5 669.286
597.5 1017.29
598.5 1291.29
599.5 1439.57
600.5 1515.86
601.5 1664
602.5 1911.14
603.5 1773.14
604.5 2086.14
605.5 2217.43
606.5 1964.14
607.5 1855
608.5 1633.14
609.5 1701.29
610.5 1787.71
611.5 1548.43
612.5 1494.71
613.5 1290.43
614.5 975.572
615.5 815.572
616.5 325.429
617.5 328.286
618.5 395.429
619.5 795.714
620.5 958.857
621.5 1161
622.5 1168
623.5 1181.14
624.5 1116.29
625.5 1156.86
626.5 1156.71
627.5 1369.43
628.5 1596.29
629.5 1479
630.5 1116.14
631.5 1227.43
632.5 1079.14
633.5 1263.29
634.5 1274
635.5 1160.86
636.5 1212.14
637.5 1412.57
638.5 1171.43
639.5 1384.29
640.5 1207.71
641.5 1229
642.5 1074
643.5 1109
644.5 1280.57
645.5 1776.86
646.5 1703.71
647.5 1393
648.5 1169.71
649.5 1251
650.5 1254.14
651.5 1507.71
652.5 1393.14
653.5 2735.71
654.5 8982.86
655.5 21151.3
656.5 18926.4
657.5 7256.71
658.5 2591.86
659.5 1338.71
660.5 1358.43
661.5 1496.86
662.5 1498.71
663.5 1129.14
664.5 1334.29
665.5 412.857
666.5 -432.428
667.5 -1206.14
668.5 -1259
669.5 -578.286
670.5 270.857
671.5 616.429
672.5 1037
673.5 1218
674.5 1771
675.5 2276.29
676.5 2838.57
677.5 2907.43
678.5 3179.29
679.5 3297
680.5 3157.43
681.5 3093.14
682.5 3165.57
683.5 3127.57
684.5 2715.43
685.5 2171.29
686.5 1048.57
687.5 -409.571
688.5 -956.857
689.5 -1281.57
690.5 -1219.43
691.5 -461.857
692.5 183.286
693.5 637.429
694.5 783.857
695.5 843.857
696.5 916.143
697.5 1050.43
698.5 983.429
699.5 885.429
700.5 1273
701.5 1164.86
702.5 1089.14
703.5 1442.14
704.5 1383.71
705.5 1270
706.5 1071.86
707.5 1103
708.5 1210.57
709.5 1021.14
710.5 1226.14
711.5 1014.71
712.5 1074.43
713.5 1057.29
714.5 1099.14
715.5 1072.71
716.5 1010.29
717.5 973.571
718.5 1042.86
719.5 931.429
720.5 1204
721.5 1090.57
722.5 1003.14
723.5 905.571
724.5 1000.29
725.5 932.429
726.5 899.572
727.5 1129.57
728.5 981
729.5 911.714
730.5 1166.43
731.5 1015.86
732.5 1138
733.5 1075.14
734.5 1146
735.5 1019.71
736.5 1044.29
737.5 1009.57
738.5 1207.29
739.5 1120.43
740.5 1092.14
741.5 994.857
742.5 1051.29
743.5 982.286
744.5 1005.29
745.5 1051.29
746.5 1036.14
747.5 966.286
748.5 968.571
749.5 875.857
750.5 1066.71
751.5 1075.29
752.5 1080.86
753.5 1016.14
754.5 1140.71
755.5 1004.29
756.5 1199.29
757.5 1355
758.5 2230.14
759.5 8591.86
760.5 24287.3
761.5 27062.9
762.5 12288.6
763.5 3324.43
764.5 1523.14
765.5 1227.43
766.5 1119.14
767.5 906.429
768.5 930.143
769.5 1021.14
770.5 1170.57
771.5 868.143
772.5 933.714
773.5 874.857
774.5 1107.57
775.5 1031.86
776.5 1200.57
777.5 820
778.5 1001.86
779.5 1009.57
780.5 1079.43
781.5 921.857
782.5 792.571
783.5 1078.57
784.5 1005
785.5 850.429
786.5 871.571
787.5 1096.29
788.5 994
789.5 1004.71
790.5 1037.57
791.5 854.714
792.5 943.714
793.5 1028.57
794.5 986.571
795.5 928.143
796.5 949.571
797.5 1095.71
798.5 1160.29
799.5 959
800.5 1067.86
801.5 1016.29
802.5 1064.86
803.5 1213.86
804.5 1274.14
805.5 1443.14
806.5 1780.71
807.5 1735.43
808.5 1403
809.5 1235
810.5 992.286
811.5 935.714
812.5 1074.43
813.5 932.571
814.5 1109
815.5 1066
816.5 1014.86
817.5 1191.43
818.5 1037.29
819.5 1025.29
820.5 962.286
821.5 905.571
822.5 1103.29
823.5 1116.57
824.5 1243.29
825.5 1014.86
826.5 997.714
827.5 1271.14
828.5 1111.57
829.5 1207.43
830.5 1040
831.5 1170.43
832.5 1106.57
833.5 1133.57
834.5 1115.43
835.5 992.286
836.5 1011.86
837.5 997.143
838.5 1080.43
839.5 1136.14
840.5 1029.14
841.5 1000.86
842.5 1098.86
843.5 1162.86
844.5 971.286
845.5 1114.71
846.5 1279.57
847.5 964.571
848.5 1086.29
849.5 1037.43
850.5 1209.14
851.5 1055.71
852.5 1230
853.5 1093.86
854.5 1124.71
855.5 1229.86
856.5 1166
857.5 1077.43
858.5 1078.14
859.5 1158.57
860.5 1060.14
861.5 1288.29
862.5 1150
863.5 1131
864.5 1313.14
865.5 1202.57
866.5 1342.43
867.5 1287
868.5 1309.43
869.5 1395.14
870.5 1461.14
871.5 1092.57
872.5 1133.14
873.5 1234.43
874.5 1176.43
875.5 1158
876.5 1183.43
877.5 1107.86
878.5 1110.43
879.5 1186.43
880.5 1311.43
881.5 1321.71
882.5 1279.57
883.5 1204.14
884.5 1192
885.5 1294.71
886.5 1239.57
887.5 1128.14
888.5 1239.29
889.5 1349.57
890.5 1243.43
891.5 1411.71
892.5 1209
893.5 1331
894.5 1243.57
895.5 1238.71
896.5 1402.43
897.5 1287.86
898.5 1251.14
899.5 1302.57
900.5 1411.86
901.5 1269.71
902.5 1287.57
903.5 1321.14
904.5 1302.86
905.5 1582.29
906.5 1301.14
907.5 1261.57
908.5 1411.86
909.5 1392.86
910.5 1300.71
911.5 1434.86
912.5 1352.14
913.5 1424.29
914.5 1551.43
915.5 1314.43
916.5 1296.43
917.5 1491.71
918.5 1512.29
919.5 1399.71
920.5 1315.71
921.5 1369.29
922.5 1281.43
923.5 1460.43
924.5 1393.14
925.5 1307.86
926.5 1361.71
927.5 1408.57
928.5 1309
929.5 1491.86
930.5 1353.14
931.5 1481.86
932.5 1447.71
933.5 1351.57
934.5 1373.43
935.5 1145.29
936.5 1442.57
937.5 1365.29
938.5 1495.29
939.5 1265.86
940.5 1502.29
941.5 1259.71
942.5 1413
943.5 1518.29
944.5 1425.29
945.5 1256.86
946.5 1342.71
947.5 1111
948.5 1117.14
949.5 1148.71
950.5 1195
951.5 1262.14
952.5 1139.71
953.5 1169.57
954.5 1163.14
955.5 1179.29
956.5 1126.29
957.5 1097.29
958.5 1156
959.5 989.286
960.5 1235.43
961.5 1157.14
962.5 1005
963.5 1113.71
964.5 1239.14
965.5 1110.14
966.5 1137.71
967.5 1077.43
968.5 1032.29
969.5 1011
970.5 1002.43
971.5 883.429
972.5 1005.29
973.5 905.143
974.5 1021.43
975.5 997.143
976.5 938.429
977.5 926.286
978.5 970.286
979.5 1032.14
980.5 1007.71
981.5 1097.57
982.5 998.571
983.5 1089.14
984.5 978.143
985.5 904
986.5 832.429
987.5 930.429
988.5 1009.57
989.5 964.714
990.5 1068.29
991.5 911.429
992.5 830.857
993.5 922
994.5 954.429
995.5 1031.71
996.5 786.571
997.5 917.857
998.5 830.429
999.5 866.857
1000.5 1506.71
1001.5 2104.43
1002.5 2103.43
1003.5 1300.57
1004.5 814
1005.5 1057.71
1006.5 831.857
1007.5 873.857
1008.5 923.714
1009.5 931
1010.5 776.286
1011.5 849.286
1012.5 846.429
1013.5 810.143
1014.5 946.143
1015.5 941.857
1016.5 803
1017.5 702.429
1018.5 893
1019.5 830.143
1020.5 839
1021.5 882.857
1022.5 698.143
1023.5 836.571
1024.5 1015.43
1025.5 938.286
1026.5 849
1027.5 688
1028.5 754
1029.5 846.429
1030.5 656.286
1031.5 630.286
1032.5 731.857
1033.5 700.143
1034.5 746
1035.5 731.286
1036.5 693.429
1037.5 822.714
1038.5 678.429
1039.5 659.429
1040.5 675.571
1041.5 736
1042.5 714
1043.5 613.286
1044.5 676.714
1045.5 626.857
1046.5 584.714
1047.5 773.429
1048.5 547.286
1049.5 678.286
1050.5 613.714
1051.5 697
1052.5 674.857
1053.5 631.286
1054.5 601.286
1055.5 613.143
1056.5 568.286
1057.5 634.143
1058.5 459.857
1059.5 605.714
1060.5 649
1061.5 514.714
1062.5 817.857
1063.5 638.143
1064.5 689.143
1065.5 604.857
1066.5 758.714
1067.5 635.714
1068.5 705
1069.5 697.429
1070.5 660.286
1071.5 1071.43
1072.5 2229
1073.5 4870.57
1074.5 5831.43
1075.5 3090.43
1076.5 1194.14
1077.5 730.714
1078.5 622.714
1079.5 643.286
1080.5 544.143
1081.5 569.429
1082.5 690.286
1083.5 557
1084.5 498.571
1085.5 625.286
1086.5 576.143
1087.5 557
1088.5 598.286
1089.5 502.286
1090.5 720.143
1091.5 746.286
1092.5 727.143
1093.5 814.571
1094.5 696.429
1095.5 580.857
1096.5 628.714
1097.5 509.286
1098.5 681.714
1099.5 648.571
1100.5 606.143
1101.5 573.571
1102.5 724.571
1103.5 688.857
1104.5 503.714
1105.5 601.143
1106.5 533.857
1107.5 636.714
1108.5 615.286
1109.5 649
1110.5 647.571
1111.5 694.143
1112.5 670.857
1113.5 466.143
1114.5 533.571
1115.5 619.286
1116.5 709.286
1117.5 533.429
1118.5 722
1119.5 662.571
1120.5 530.429
1121.5 566
1122.5 1147.57
1123.5 3368.71
1124.5 11009.3
1125.5 25962.7
1126.5 29970.6
1127.5 13446.1
1128.5 3312.29
1129.5 1121.29
1130.5 636
1131.5 646.429
1132.5 571.714
1133.5 533.286
1134.5 599.857
1135.5 630.143
1136.5 535
1137.5 509.571
1138.5 639.286
1139.5 648.143
1140.5 473
1141.5 567.714
1142.5 528.143
1143.5 558.429
1144.5 611.143
1145.5 678.143
1146.5 573.714
1147.5 630
1148.5 601.286
1149.5 673.714
1150.5 740.714
1151.5 736.429
1152.5 888.429
1153.5 2036.29
1154.5 7700.29
1155.5 26487.9
1156.5 57430
1157.5 59320.7
1158.5 24606.9
1159.5 5406.57
1160.5 1450.86
1161.5 630
1162.5 551.857
1163.5 404
1164.5 393.714
1165.5 581.143
1166.5 461.571
1167.5 504.143
1168.5 486.286
1169.5 424.429
1170.5 476.429
1171.5 426.714
1172.5 424.857
1173.5 419
1174.5 388.571
1175.5 461.143
1176.5 445.857
1177.5 382.429
1178.5 465
1179.5 409.143
1180.5 470.286
1181.5 517.286
1182.5 438.429
1183.5 340.571
1184.5 459.286
1185.5 404.714
1186.5 405.571
1187.5 388
1188.5 570.571
1189.5 703.857
1190.5 1247.86
1191.5 1384.14
1192.5 853.429
1193.5 521.714
1194.5 390.714
1195.5 395.286
1196.5 438
1197.5 324
1198.5 309.571
1199.5 466.429
1200.5 376.857
1201.5 396.714
1202.5 435
1203.5 444
1204.5 339
1205.5 333.143
1206.5 443.714
1207.5 406
1208.5 423.143
1209.5 320.286
1210.5 437.429
1211.5 353.429
1212.5 447.143
1213.5 435.286
1214.5 285.429
1215.5 374.143
1216.5 471.286
1217.5 426.286
1218.5 387.429
1219.5 378.571
1220.5 339.857
1221.5 345.286
1222.5 412.571
1223.5 343.571
1224.5 452.714
1225.5 487.143
1226.5 386.857
1227.5 450.286
1228.5 367
1229.5 473.571
1230.5 296.714
1231.5 380.286
1232.5 401.429
1233.5 392.286
1234.5 361.429
1235.5 324.571
1236.5 352
1237.5 453.143
1238.5 359.571
1239.5 365
1240.5 518.429
1241.5 490.571
1242.5 488.143
1243.5 403.143
1244.5 449.714
1245.5 396.714
1246.5 311
1247.5 335.429
1248.5 352
1249.5 318.857
1250.5 353.857
1251.5 346.143
1252.5 370.143
1253.5 333.286
1254.5 359
1255.5 434.286
1256.5 428.286
1257.5 441.714
1258.5 396.857
1259.5 374.429
1260.5 378
1261.5 460.571
1262.5 382.571
1263.5 395.857
1264.5 436.429
1265.5 419
1266.5 396
1267.5 448
1268.5 406.857
1269.5 330.429
1270.5 409
1271.5 413.429
1272.5 358.571
1273.5 344
1274.5 370.286
1275.5 290.714
1276.5 443.286
1277.5 389.286
1278.5 339.857
1279.5 449.286
1280.5 341.857
1281.5 337.571
1282.5 302.571
1283.5 382.286
1284.5 383.286
1285.5 399
1286.5 336.286
1287.5 335
1288.5 173.857
1289.5 306.714
1290.5 334.571
1291.5 292
1292.5 366.714
1293.5 344
1294.5 369.857
1295.5 311.143
1296.5 308.571
1297.5 334.286
1298.5 405
1299.5 347.286
1300.5 319.286
1301.5 308.429
1302.5 298.714
1303.5 261.143
1304.5 290
1305.5 367
1306.5 300.857
1307.5 333.429
1308.5 186.571
1309.5 26.4286
1310.5 243.571
1311.5 303.286
1312.5 223.286
1313.5 366.143
1314.5 342.714
1315.5 457.571
1316.5 293.571
1317.5 388.286
1318.5 424.714
1319.5 305.429
1320.5 265.286
1321.5 350.429
1322.5 294.143
1323.5 376.286
1324.5 321.429
1325.5 339.286
1326.5 342
1327.5 339.143
1328.5 250.857
1329.5 335.857
1330.5 417.429
1331.5 639.429
1332.5 430.143
1333.5 408
1334.5 342.143
1335.5 231.714
1336.5 293.571
1337.5 336.286
1338.5 275.286
1339.5 347.857
1340.5 341.857
1341.5 259.286
1342.5 274.571
1343.5 223.857
1344.5 360.571
1345.5 400.571
1346.5 374.143
1347.5 398
1348.5 328.857
1349.5 309.429
1350.5 362.429
1351.5 472.571
1352.5 661.714
1353.5 597.857
1354.5 413.571
1355.5 379.429
1356.5 346.857
1357.5 327.143
1358.5 273.571
1359.5 296.857
1360.5 385.143
1361.5 241.429
1362.5 318.286
1363.5 364.286
1364.5 288.571
1365.5 241.714
1366.5 224.286
1367.5 189.857
1368.5 357.286
1369.5 267.286
1370.5 334.857
1371.5 266.571
1372.5 375.286
1373.5 375
1374.5 430.143
1375.5 416.429
1376.5 475.857
1377.5 401.286
1378.5 354.143
1379.5 309.571
1380.5 275.714
1381.5 345.429
1382.5 322.143
1383.5 452.857
1384.5 747
1385.5 2416.86
1386.5 6408.43
1387.5 11799
1388.5 10328.3
1389.5 4097.71
1390.5 1165.43
1391.5 484
1392.5 312.714
1393.5 320.429
1394.5 304.143
1395.5 309.429
1396.5 376.286
1397.5 432.143
1398.5 343.714
1399.5 318.429
1400.5 343.571
1401.5 415.429
1402.5 346.571
1403.5 329.571
1404.5 340.857
1405.5 393.143
1406.5 257.857
1407.5 344.143
1408.5 354.714
1409.5 377.143
1410.5 286
1411.5 288.143
1412.5 235.429
1413.5 229.857
1414.5 225.857
1415.5 306.714
1416.5 248.857
1417.5 301.143
1418.5 284.571
1419.5 246.286
1420.5 189.286
1421.5 194.714
1422.5 262.714
1423.5 228.143
1424.5 345.286
1425.5 223
1426.5 267.857
1427.5 294.714
1428.5 390.857
1429.5 413
1430.5 279.714
1431.5 284.714
1432.5 285.857
1433.5 296.143
1434.5 213.857
1435.5 328.143
1436.5 336.857
1437.5 300.571
1438.5 255.571
