# EGG_ProjY_E6479.0(8.0)_B6498.0(3.0)_B6458.5(2.5)
# X axis : Energy (keV) [Y axis]
# Y axis : Counts/1 keV
# N Bins : 12000
# X Min : 0
# X Max : 12000
# X value at the center of the bins
0.5 0
1.5 0
2.5 0
3.5 0
4.5 0
5.5 -2.81819
6.5 8.18181
7.5 -10.6364
8.5 40.0909
9.5 0.363632
10.5 5.45454
11.5 36.6364
12.5 34.4545
13.5 87.1818
14.5 89.4545
15.5 44.1818
16.5 21.6364
17.5 30.6364
18.5 57.7273
19.5 67.8182
20.5 98.9091
21.5 125
22.5 93.1818
23.5 136.182
24.5 159.182
25.5 227.182
26.5 213.545
27.5 271.273
28.5 274.455
29.5 230.636
30.5 316.091
31.5 326.364
32.5 324.273
33.5 357.545
34.5 300.636
35.5 355.727
36.5 308.364
37.5 406
38.5 407.182
39.5 408
40.5 445.182
41.5 396.455
42.5 511.091
43.5 424.545
44.5 427.727
45.5 460.273
46.5 372.909
47.5 433.727
48.5 482.273
49.5 511.455
50.5 381.909
51.5 526
52.5 484.818
53.5 486.364
54.5 493.364
55.5 452.545
56.5 513.091
57.5 590.909
58.5 676
59.5 766.091
60.5 573.364
61.5 568.091
62.5 521.545
63.5 514.818
64.5 531.455
65.5 504.636
66.5 571.455
67.5 591.909
68.5 570.455
69.5 557.727
70.5 472.364
71.5 449.273
72.5 465.727
73.5 647.091
74.5 827.273
75.5 873.727
76.5 1019.64
77.5 1078.45
78.5 715.364
79.5 455.545
80.5 457.727
81.5 443.091
82.5 510.455
83.5 476.818
84.5 428.091
85.5 449.455
86.5 637.818
87.5 701.909
88.5 628.182
89.5 547.091
90.5 556.364
91.5 550.909
92.5 506.545
93.5 446.182
94.5 480.909
95.5 430.182
96.5 466.818
97.5 523.091
98.5 451.909
99.5 504.091
100.5 445.727
101.5 360.273
102.5 477
103.5 474.364
104.5 474.091
105.5 587.545
106.5 560.455
107.5 517.182
108.5 499.455
109.5 512.091
110.5 544
111.5 526.364
112.5 542
113.5 578.818
114.5 566.818
115.5 501.545
116.5 528.636
117.5 512.818
118.5 663.636
119.5 586.727
120.5 598.636
121.5 624.182
122.5 584
123.5 629
124.5 651.182
125.5 515.364
126.5 627.091
127.5 654.182
128.5 675.545
129.5 653.636
130.5 617.273
131.5 597.727
132.5 530.909
133.5 559.636
134.5 620.727
135.5 679.091
136.5 587.455
137.5 673.364
138.5 555.909
139.5 665.636
140.5 717.091
141.5 607.727
142.5 709.091
143.5 761.091
144.5 715
145.5 665.727
146.5 711.455
147.5 644.364
148.5 563.909
149.5 447
150.5 550.545
151.5 572.182
152.5 539.091
153.5 616
154.5 723.091
155.5 427.909
156.5 625.364
157.5 664.091
158.5 654.636
159.5 600.455
160.5 673.636
161.5 536.727
162.5 610.818
163.5 655.273
164.5 661.727
165.5 603.273
166.5 743.545
167.5 705
168.5 643.455
169.5 732.545
170.5 912.091
171.5 1054.73
172.5 856.636
173.5 697.909
174.5 832.636
175.5 702.091
176.5 739.273
177.5 635.909
178.5 632.545
179.5 599.727
180.5 567.909
181.5 635.727
182.5 682.818
183.5 635.455
184.5 646.818
185.5 496.364
186.5 584.455
187.5 585
188.5 686.727
189.5 513.727
190.5 480.455
191.5 405.636
192.5 526.545
193.5 498.909
194.5 446.545
195.5 452.727
196.5 398
197.5 500.364
198.5 532.909
199.5 509.364
200.5 641.818
201.5 550.545
202.5 560.182
203.5 655.455
204.5 792.636
205.5 708.091
206.5 682.364
207.5 762.364
208.5 878.182
209.5 807
210.5 973.091
211.5 955.909
212.5 982.182
213.5 912.273
214.5 849.091
215.5 889.455
216.5 920.273
217.5 935.182
218.5 1028.36
219.5 916.727
220.5 934.455
221.5 952.364
222.5 910.182
223.5 933.545
224.5 898.727
225.5 789.909
226.5 764.182
227.5 743.455
228.5 747.818
229.5 735
230.5 625.455
231.5 610.273
232.5 574.273
233.5 523.273
234.5 504.364
235.5 491.909
236.5 536.545
237.5 508.364
238.5 599.909
239.5 506.818
240.5 560.091
241.5 685.545
242.5 635.273
243.5 660.364
244.5 717.091
245.5 641.818
246.5 666.818
247.5 712.182
248.5 649.727
249.5 666.364
250.5 735.364
251.5 715.091
252.5 696.455
253.5 688.364
254.5 635.273
255.5 716.273
256.5 689.909
257.5 615.455
258.5 652.545
259.5 689.182
260.5 693.273
261.5 686.818
262.5 717.091
263.5 704.182
264.5 719.636
265.5 657.091
266.5 631.455
267.5 602.182
268.5 543
269.5 572.364
270.5 424.091
271.5 536.727
272.5 378.091
273.5 553.818
274.5 431.727
275.5 441.909
276.5 632.727
277.5 564.364
278.5 593.636
279.5 607.727
280.5 572.818
281.5 678.091
282.5 690.636
283.5 655.545
284.5 646.636
285.5 665.818
286.5 641.364
287.5 645.727
288.5 740.455
289.5 629.909
290.5 685.545
291.5 626
292.5 626.273
293.5 631.818
294.5 649.727
295.5 610.636
296.5 652.273
297.5 607.727
298.5 641.727
299.5 587.545
300.5 593
301.5 595.455
302.5 555.818
303.5 493.091
304.5 508
305.5 502.091
306.5 431
307.5 507.909
308.5 388.455
309.5 514.455
310.5 449
311.5 453.545
312.5 381.545
313.5 365.364
314.5 423.818
315.5 512.455
316.5 480.636
317.5 502.364
318.5 547.818
319.5 539.909
320.5 498.455
321.5 512.273
322.5 490
323.5 549.091
324.5 434.727
325.5 566.364
326.5 512
327.5 521.455
328.5 572.909
329.5 483.818
330.5 545.727
331.5 491.636
332.5 476.273
333.5 574.909
334.5 459.727
335.5 604.545
336.5 433.273
337.5 510.909
338.5 432.818
339.5 389.636
340.5 452.182
341.5 464.727
342.5 447.909
343.5 450.364
344.5 457.818
345.5 463.636
346.5 473.727
347.5 427.727
348.5 493.091
349.5 441.818
350.5 475.818
351.5 432.545
352.5 496.636
353.5 578.364
354.5 449.455
355.5 568.273
356.5 465.727
357.5 446.909
358.5 511.818
359.5 412.727
360.5 515.182
361.5 450.182
362.5 519.364
363.5 483.818
364.5 525.364
365.5 531.727
366.5 470.818
367.5 825.455
368.5 810.091
369.5 594.545
370.5 486.455
371.5 435.182
372.5 390.727
373.5 480.909
374.5 474.818
375.5 473.909
376.5 363.727
377.5 402.636
378.5 423.182
379.5 324.727
380.5 378.636
381.5 356.091
382.5 386.455
383.5 330.818
384.5 433.818
385.5 311.636
386.5 378.636
387.5 466.455
388.5 417.182
389.5 465.636
390.5 407.909
391.5 370.273
392.5 386.545
393.5 368.364
394.5 382.091
395.5 386.818
396.5 335.364
397.5 384.273
398.5 412.364
399.5 371
400.5 325.909
401.5 339.545
402.5 389.455
403.5 322.636
404.5 360.364
405.5 315.091
406.5 280.727
407.5 295.455
408.5 333.455
409.5 364.636
410.5 346.455
411.5 383.909
412.5 345.364
413.5 376
414.5 359.636
415.5 450.273
416.5 458.727
417.5 465.909
418.5 506.636
419.5 518.818
420.5 465.909
421.5 553.364
422.5 504.727
423.5 441.545
424.5 465.818
425.5 452.182
426.5 477.818
427.5 399.727
428.5 488.545
429.5 452.364
430.5 427.273
431.5 368.636
432.5 381.364
433.5 354.364
434.5 369.545
435.5 313.818
436.5 370.091
437.5 343.636
438.5 393.091
439.5 318.182
440.5 344.727
441.5 321.909
442.5 333.455
443.5 338.273
444.5 355.727
445.5 376.818
446.5 392.182
447.5 412.455
448.5 376.364
449.5 451.636
450.5 435.636
451.5 387.909
452.5 362.364
453.5 421.091
454.5 478.364
455.5 542.455
456.5 448.545
457.5 383.091
458.5 417.909
459.5 455.545
460.5 462.273
461.5 384.636
462.5 410.727
463.5 353.273
464.5 384.727
465.5 368.818
466.5 389.909
467.5 308.455
468.5 353
469.5 324.636
470.5 359.636
471.5 349.455
472.5 380.455
473.5 428.091
474.5 388.545
475.5 401.909
476.5 410.636
477.5 353
478.5 361.455
479.5 395.364
480.5 344.091
481.5 456
482.5 412.636
483.5 391.545
484.5 407.091
485.5 375.909
486.5 342.182
487.5 347.273
488.5 346.364
489.5 350
490.5 385.091
491.5 332.455
492.5 294.818
493.5 384.636
494.5 402.909
495.5 319.636
496.5 395.455
497.5 352
498.5 392.364
499.5 381.818
500.5 388.727
501.5 393.091
502.5 361.091
503.5 383.182
504.5 381.727
505.5 409.091
506.5 443.727
507.5 745.454
508.5 1161.45
509.5 2014.09
510.5 2880
511.5 2832.82
512.5 1834.73
513.5 913.909
514.5 534.273
515.5 396.545
516.5 308.273
517.5 326.818
518.5 286.182
519.5 337.091
520.5 245.545
521.5 307.091
522.5 335.091
523.5 326.091
524.5 308.455
525.5 303
526.5 260.091
527.5 280
528.5 386.182
529.5 346.273
530.5 310.273
531.5 346.636
532.5 331.636
533.5 274
534.5 339.455
535.5 296.364
536.5 269.727
537.5 265.182
538.5 290.091
539.5 341.636
540.5 317.636
541.5 333.182
542.5 277.545
543.5 283.182
544.5 307.182
545.5 327.364
546.5 332.455
547.5 255.636
548.5 312.455
549.5 373.818
550.5 282
551.5 345.727
552.5 259.727
553.5 283
554.5 292.273
555.5 301.091
556.5 274.182
557.5 228.545
558.5 338.273
559.5 282.636
560.5 312.909
561.5 285.636
562.5 277.636
563.5 184.909
564.5 292.364
565.5 319.545
566.5 257.818
567.5 293.182
568.5 273.273
569.5 243.727
570.5 283.636
571.5 308.818
572.5 289.818
573.5 279.636
574.5 320.909
575.5 285.091
576.5 326.273
577.5 249.636
578.5 264.091
579.5 347.273
580.5 286.455
581.5 292.818
582.5 322.818
583.5 332.182
584.5 286.636
585.5 267.455
586.5 336.273
587.5 298.727
588.5 275.909
589.5 345
590.5 273.091
591.5 298.364
592.5 300.273
593.5 299.545
594.5 286.273
595.5 321.364
596.5 312.818
597.5 265.091
598.5 288.545
599.5 295.364
600.5 280.455
601.5 302.636
602.5 247.091
603.5 283.455
604.5 286.818
605.5 279
606.5 334.273
607.5 312.273
608.5 268.727
609.5 317.909
610.5 229.545
611.5 296.727
612.5 231.636
613.5 233.364
614.5 272.455
615.5 266.545
616.5 263.364
617.5 267.909
618.5 258.636
619.5 279
620.5 285.818
621.5 248.727
622.5 218.364
623.5 294.909
624.5 250.636
625.5 252.273
626.5 243.455
627.5 253.455
628.5 282.727
629.5 229
630.5 285.091
631.5 254.364
632.5 259.455
633.5 253.364
634.5 277.091
635.5 207.455
636.5 244.818
637.5 318.091
638.5 326.818
639.5 230.727
640.5 293.273
641.5 274.818
642.5 308.636
643.5 307
644.5 311.364
645.5 262.455
646.5 377.818
647.5 291.636
648.5 226.909
649.5 293.545
650.5 359.545
651.5 342.818
652.5 290.182
653.5 309.727
654.5 255.818
655.5 238
656.5 299.818
657.5 254.909
658.5 314
659.5 286.636
660.5 271.818
661.5 248.727
662.5 229.727
663.5 264.909
664.5 320.818
665.5 270.273
666.5 272.636
667.5 244.545
668.5 293.818
669.5 300
670.5 249.727
671.5 247.273
672.5 261.182
673.5 230
674.5 313.727
675.5 334.364
676.5 285.091
677.5 281.818
678.5 287
679.5 279.818
680.5 247.455
681.5 268.909
682.5 224.545
683.5 302.909
684.5 270.364
685.5 264.818
686.5 265
687.5 268.364
688.5 261
689.5 249.727
690.5 281.273
691.5 233.909
692.5 238.727
693.5 277.636
694.5 263.182
695.5 233.091
696.5 288.091
697.5 283.818
698.5 283.818
699.5 321.818
700.5 270.273
701.5 192.091
702.5 219.818
703.5 221.455
704.5 231.273
705.5 223.364
706.5 202.545
707.5 186.727
708.5 256.273
709.5 204.455
710.5 217.364
711.5 232.909
712.5 240.636
713.5 205.364
714.5 325.182
715.5 293.455
716.5 297.545
717.5 328.182
718.5 286.545
719.5 293.545
720.5 304.182
721.5 297.091
722.5 353.636
723.5 345.818
724.5 723.545
725.5 1731.55
726.5 2326.64
727.5 1349.09
728.5 555.909
729.5 315
730.5 309.636
731.5 274
732.5 309.273
733.5 312.091
734.5 269.727
735.5 282.455
736.5 259.909
737.5 264.455
738.5 254.727
739.5 274.545
740.5 268
741.5 191.091
742.5 243
743.5 230.455
744.5 239.364
745.5 231.182
746.5 244.364
747.5 210.455
748.5 198.909
749.5 242.727
750.5 259.909
751.5 250.273
752.5 289.091
753.5 210.273
754.5 279.182
755.5 217.364
756.5 237.727
757.5 275.364
758.5 304.636
759.5 268.727
760.5 397.636
761.5 424.909
762.5 379.818
763.5 332.636
764.5 264.818
765.5 297.727
766.5 220.545
767.5 258.909
768.5 264.727
769.5 289.091
770.5 281.818
771.5 261.636
772.5 307.545
773.5 318.545
774.5 313
775.5 236.182
776.5 261.364
777.5 301.455
778.5 312.273
779.5 288.182
780.5 303
781.5 317
782.5 260.545
783.5 230.545
784.5 216.636
785.5 272.364
786.5 272.545
787.5 255.273
788.5 257
789.5 280.909
790.5 304.364
791.5 244.364
792.5 273.364
793.5 239.091
794.5 214.455
795.5 273.727
796.5 237.182
797.5 258.818
798.5 214.909
799.5 256.727
800.5 242.091
801.5 249.091
802.5 211.364
803.5 223.182
804.5 285.818
805.5 269.727
806.5 260.273
807.5 311.727
808.5 304.455
809.5 287
810.5 294.364
811.5 224
812.5 248.545
813.5 268.091
814.5 277.455
815.5 243.636
816.5 255.455
817.5 317.909
818.5 279.636
819.5 279.182
820.5 251.545
821.5 252.727
822.5 224.364
823.5 262.636
824.5 323.545
825.5 224
826.5 279.545
827.5 282.273
828.5 287.727
829.5 289.273
830.5 259.727
831.5 299.364
832.5 239.727
833.5 248.636
834.5 295.364
835.5 310.091
836.5 243
837.5 251.182
838.5 272
839.5 264.091
840.5 237.818
841.5 278.818
842.5 294.091
843.5 263.727
844.5 209.545
845.5 261.364
846.5 301
847.5 308.273
848.5 290.727
849.5 277.455
850.5 269.818
851.5 267.727
852.5 309.818
853.5 219
854.5 283
855.5 218.182
856.5 260.455
857.5 239.909
858.5 265.636
859.5 286.455
860.5 317
861.5 275.727
862.5 244
863.5 232.091
864.5 237
865.5 272.364
866.5 281
867.5 301.636
868.5 271.182
869.5 359
870.5 275.091
871.5 318.545
872.5 501.727
873.5 792.636
874.5 942.545
875.5 609.818
876.5 379.545
877.5 323.182
878.5 367.727
879.5 297.455
880.5 273.091
881.5 258.091
882.5 303.182
883.5 264
884.5 208.182
885.5 333.455
886.5 288.273
887.5 326.818
888.5 318.455
889.5 275.455
890.5 306.636
891.5 281.727
892.5 268
893.5 279.182
894.5 275.273
895.5 292.455
896.5 320.818
897.5 287.455
898.5 296.455
899.5 268.091
900.5 316.364
901.5 285.455
902.5 317.727
903.5 257.727
904.5 309
905.5 302.818
906.5 313.091
907.5 272.455
908.5 271.091
909.5 275.727
910.5 303.727
911.5 306.727
912.5 251.636
913.5 288.818
914.5 283.091
915.5 304.636
916.5 327.727
917.5 319.091
918.5 329.818
919.5 288.636
920.5 267.636
921.5 349.818
922.5 306.455
923.5 368.909
924.5 323.455
925.5 322.091
926.5 396.636
927.5 378.818
928.5 351.727
929.5 399.182
930.5 399.364
931.5 397.273
932.5 400.545
933.5 412.545
934.5 414.636
935.5 425.091
936.5 347
937.5 410.182
938.5 393.909
939.5 351.455
940.5 374.727
941.5 381.273
942.5 384.273
943.5 385.273
944.5 358.909
945.5 361.727
946.5 362.545
947.5 348
948.5 307.455
949.5 307.091
950.5 297.636
951.5 327.636
952.5 269.091
953.5 283.818
954.5 265.364
955.5 257.818
956.5 284.364
957.5 270.636
958.5 237.727
959.5 294.364
960.5 261.727
961.5 257.182
962.5 217.909
963.5 221
964.5 250.727
965.5 189.091
966.5 269.636
967.5 273
968.5 261
969.5 236.364
970.5 348.091
971.5 326.455
972.5 534.636
973.5 1141.18
974.5 1483.09
975.5 1047.45
976.5 490.727
977.5 328.455
978.5 283.909
979.5 304.091
980.5 235.545
981.5 255.455
982.5 328.273
983.5 309.273
984.5 276.818
985.5 281.273
986.5 270.091
987.5 330.091
988.5 432
989.5 394.909
990.5 315.727
991.5 255.727
992.5 218.182
993.5 262.545
994.5 216.909
995.5 242.091
996.5 193.727
997.5 220.364
998.5 213.636
999.5 201
1000.5 273
1001.5 248.545
1002.5 220.364
1003.5 214.364
1004.5 229.455
1005.5 225.636
1006.5 202.182
1007.5 223.364
1008.5 237.818
1009.5 249.818
1010.5 258.818
1011.5 256.636
1012.5 212.727
1013.5 228
1014.5 229.364
1015.5 210.818
1016.5 218.727
1017.5 198.909
1018.5 246.091
1019.5 302.273
1020.5 277.727
1021.5 280.364
1022.5 259
1023.5 315.909
1024.5 341.455
1025.5 343.273
1026.5 224.455
1027.5 228.909
1028.5 176.182
1029.5 221.818
1030.5 214.182
1031.5 215.091
1032.5 207.455
1033.5 171.364
1034.5 190
1035.5 194.909
1036.5 224.182
1037.5 171.545
1038.5 167.364
1039.5 188
1040.5 188.182
1041.5 191.364
1042.5 210.727
1043.5 195.818
1044.5 211.182
1045.5 201
1046.5 175.909
1047.5 178.455
1048.5 186.273
1049.5 206.091
1050.5 243.545
1051.5 197.182
1052.5 185.545
1053.5 205.636
1054.5 185.727
1055.5 203.364
1056.5 216.727
1057.5 187.091
1058.5 158.364
1059.5 172.091
1060.5 162.909
1061.5 200.091
1062.5 217
1063.5 176.818
1064.5 231.091
1065.5 240.909
1066.5 242.545
1067.5 173
1068.5 180
1069.5 150
1070.5 176.818
1071.5 167.909
1072.5 246.273
1073.5 271
1074.5 339.455
1075.5 211.091
1076.5 187.364
1077.5 168.909
1078.5 184.273
1079.5 131.909
1080.5 175.273
1081.5 174.091
1082.5 171.273
1083.5 157
1084.5 190.364
1085.5 172.273
1086.5 195.545
1087.5 165.727
1088.5 157.727
1089.5 204.909
1090.5 175
1091.5 188.455
1092.5 164.909
1093.5 180
1094.5 138.091
1095.5 210
1096.5 173.364
1097.5 182.909
1098.5 195.455
1099.5 192
1100.5 181
1101.5 209.091
1102.5 166.636
1103.5 181.455
1104.5 209.545
1105.5 155.727
1106.5 229.727
1107.5 161.727
1108.5 166.364
1109.5 182.818
1110.5 164.091
1111.5 187.182
1112.5 195.455
1113.5 176.273
1114.5 187.545
1115.5 186.727
1116.5 136.727
1117.5 161.455
1118.5 223.545
1119.5 249.636
1120.5 248.364
1121.5 224.273
1122.5 212.545
1123.5 274.091
1124.5 525.182
1125.5 1235.45
1126.5 1070.73
1127.5 532.454
1128.5 275.909
1129.5 198
1130.5 165.091
1131.5 172.636
1132.5 147.909
1133.5 166.182
1134.5 166.909
1135.5 129
1136.5 187.455
1137.5 176.727
1138.5 179.545
1139.5 119.636
1140.5 194.091
1141.5 183.364
1142.5 165.636
1143.5 210
1144.5 205.273
1145.5 156.545
1146.5 200.818
1147.5 160.727
1148.5 180.727
1149.5 201.727
1150.5 193.091
1151.5 207.455
1152.5 354.182
1153.5 746
1154.5 2456.27
1155.5 7708.18
1156.5 17363.2
1157.5 17316.7
1158.5 7338.09
1159.5 1703.64
1160.5 409
1161.5 217.909
1162.5 172.727
1163.5 146.545
1164.5 151.818
1165.5 161.818
1166.5 134
1167.5 178.091
1168.5 144.545
1169.5 120.636
1170.5 129.636
1171.5 157
1172.5 115.273
1173.5 156.455
1174.5 97.6364
1175.5 120.182
1176.5 131.818
1177.5 120.364
1178.5 138.091
1179.5 107.182
1180.5 135.182
1181.5 124
1182.5 101.636
1183.5 160.727
1184.5 104.727
1185.5 120.364
1186.5 152
1187.5 164.636
1188.5 179
1189.5 123.727
1190.5 138.818
1191.5 166.727
1192.5 124.636
1193.5 123.273
1194.5 152.364
1195.5 136.091
1196.5 144.636
1197.5 131.909
1198.5 131.818
1199.5 144.909
1200.5 128.455
1201.5 131.091
1202.5 154.091
1203.5 135.909
1204.5 129
1205.5 131.364
1206.5 115.273
1207.5 130.182
1208.5 153.545
1209.5 135.818
1210.5 164.727
1211.5 114.182
1212.5 127.545
1213.5 139.182
1214.5 120.545
1215.5 146.727
1216.5 137.636
1217.5 126.364
1218.5 126.545
1219.5 123.818
1220.5 156.727
1221.5 150.273
1222.5 113.818
1223.5 145.273
1224.5 118
1225.5 131.818
1226.5 141.273
1227.5 103.545
1228.5 161.091
1229.5 134.273
1230.5 115.545
1231.5 133.273
1232.5 113.091
1233.5 138.091
1234.5 110.909
1235.5 186
1236.5 157.364
1237.5 142.727
1238.5 149.818
1239.5 142.455
1240.5 134.273
1241.5 157.909
1242.5 153.091
1243.5 172.909
1244.5 144.636
1245.5 163.091
1246.5 191.818
1247.5 164.545
1248.5 150.273
1249.5 154.545
1250.5 152.909
1251.5 164.818
1252.5 162.818
1253.5 139.091
1254.5 113.636
1255.5 162.364
1256.5 169.182
1257.5 130.727
1258.5 165.545
1259.5 160.091
1260.5 143.909
1261.5 183.818
1262.5 186.909
1263.5 183.545
1264.5 140.364
1265.5 160.455
1266.5 134.364
1267.5 180.273
1268.5 149.545
1269.5 134.455
1270.5 120.545
1271.5 130.545
1272.5 126.909
1273.5 161.727
1274.5 138.909
1275.5 152.818
1276.5 129.364
1277.5 145
1278.5 141.273
1279.5 157.636
1280.5 168.727
1281.5 120.455
1282.5 172.091
1283.5 127
1284.5 144.273
1285.5 131.727
1286.5 140.636
1287.5 152.364
1288.5 134.182
1289.5 151.455
1290.5 146.909
1291.5 149.455
1292.5 143.545
1293.5 140.182
1294.5 153.909
1295.5 136
1296.5 135.545
1297.5 132.727
1298.5 162
1299.5 121.455
1300.5 131.455
1301.5 112
1302.5 128.273
1303.5 102.091
1304.5 87.6364
1305.5 140.727
1306.5 132.091
1307.5 107.091
1308.5 107.455
1309.5 122.818
1310.5 140.727
1311.5 121.273
1312.5 140.545
1313.5 147.182
1314.5 122.545
1315.5 100.091
1316.5 114.727
1317.5 132.364
1318.5 116.909
1319.5 117.636
1320.5 110.727
1321.5 113.364
1322.5 114.364
1323.5 120.909
1324.5 107.909
1325.5 82.6364
1326.5 100.364
1327.5 106.364
1328.5 120.364
1329.5 123.909
1330.5 73.2727
1331.5 112.273
1332.5 127.455
1333.5 107.455
1334.5 120.636
1335.5 136.545
1336.5 137.091
1337.5 122
1338.5 115.545
1339.5 146
1340.5 175.364
1341.5 271.909
1342.5 382.182
1343.5 323.455
1344.5 221.364
1345.5 166
1346.5 236.545
1347.5 695.455
1348.5 1592.64
1349.5 1973.18
1350.5 1278.18
1351.5 401.455
1352.5 206.091
1353.5 121.273
1354.5 112.909
1355.5 107.364
1356.5 138.091
1357.5 114.636
1358.5 81.5455
1359.5 90.9091
1360.5 117.182
1361.5 103.727
1362.5 94.6364
1363.5 106
1364.5 99.2727
1365.5 115.545
1366.5 106.909
1367.5 117.818
1368.5 86.0909
1369.5 105
1370.5 78
1371.5 127.545
1372.5 119.909
1373.5 109.364
1374.5 89.8182
1375.5 110.909
1376.5 91.2727
1377.5 111.636
1378.5 100.727
1379.5 94.2727
1380.5 104.182
1381.5 90.8182
1382.5 81.8182
1383.5 115.273
1384.5 98.5455
1385.5 113.182
1386.5 110.818
1387.5 115.909
1388.5 82.5455
1389.5 123.091
1390.5 86.3636
1391.5 100.091
1392.5 94
1393.5 93.9091
1394.5 94.8182
1395.5 103.455
1396.5 98.5455
1397.5 83
1398.5 80.4545
1399.5 100.636
1400.5 65.2727
1401.5 75.6364
1402.5 110.727
1403.5 86.0909
1404.5 89.7273
1405.5 83.1818
1406.5 64.2727
1407.5 95.9091
1408.5 101
1409.5 96.4545
1410.5 101.091
1411.5 85.7273
1412.5 81.7273
1413.5 73.8182
1414.5 76.3636
1415.5 84.6364
1416.5 102.545
1417.5 93.2727
1418.5 114.182
1419.5 98
1420.5 83.5455
1421.5 88.9091
1422.5 88.9091
1423.5 95.0909
1424.5 93.4545
1425.5 93
1426.5 77.2727
1427.5 115.545
1428.5 107.455
1429.5 123.364
