# EGG_ProjY_E1024.5(3.5)_B1035.0(2.0)_B1013.0(2.0)
# X axis : Energy (keV) [Y axis]
# Y axis : Counts/1 keV
# N Bins : 12000
# X Min : 0
# X Max : 12000
# X value at the center of the bins
0.5 0
1.5 0
2.5 0
3.5 0
4.5 0
5.5 60
6.5 46.625
7.5 90.125
8.5 57.25
9.5 24.75
10.5 55.5
11.5 77.875
12.5 35.5
13.5 111.625
14.5 125.125
15.5 220.5
16.5 312
17.5 359.75
18.5 379
19.5 531.625
20.5 683
21.5 972.625
22.5 1017.5
23.5 1336.25
24.5 1506.12
25.5 1823.5
26.5 1990.25
27.5 2204
28.5 2349.62
29.5 2568.88
30.5 2621.25
31.5 2791.38
32.5 3209.88
33.5 3311.5
34.5 3797
35.5 3683.5
36.5 3622.62
37.5 3814.5
38.5 3697.88
39.5 3723.25
40.5 3991.5
41.5 3960.38
42.5 3785.38
43.5 3496
44.5 4152.12
45.5 4254
46.5 4445.62
47.5 4156.25
48.5 4124.25
49.5 4347
50.5 4326.38
51.5 4366.25
52.5 4304.12
53.5 4699.75
54.5 4491.62
55.5 4590.25
56.5 4647.12
57.5 5705.38
58.5 6546.12
59.5 6930.88
60.5 5581.88
61.5 4515.12
62.5 4792.62
63.5 4381.38
64.5 4711.38
65.5 4980.75
66.5 5776.25
67.5 5963.62
68.5 5753
69.5 5373.5
70.5 5489.12
71.5 5268.25
72.5 5418.75
73.5 6227.38
74.5 8717.38
75.5 9577.75
76.5 10819.6
77.5 11912.1
78.5 7630.12
79.5 5079.62
80.5 4801
81.5 4980.88
82.5 4724.25
83.5 4933.38
84.5 4807.5
85.5 5669.75
86.5 6658
87.5 7477.75
88.5 5984.88
89.5 4813.5
90.5 4133.25
91.5 3456.88
92.5 3693
93.5 4690.88
94.5 5152.62
95.5 5733.75
96.5 6207.25
97.5 7380
98.5 8648.12
99.5 9324.5
100.5 10020.1
101.5 10155
102.5 10146.2
103.5 9583.62
104.5 8480.88
105.5 7294.62
106.5 6023.62
107.5 5362.88
108.5 4836.62
109.5 4201.38
110.5 3052
111.5 1260.75
112.5 195.25
113.5 547.375
114.5 2085.38
115.5 3645.62
116.5 4711.25
117.5 5073.62
118.5 3168
119.5 -345.25
120.5 -4259.5
121.5 -6499.25
122.5 -5434.12
123.5 -2455.25
124.5 2213.88
125.5 5592.12
126.5 8484.62
127.5 11603.2
128.5 17244.4
129.5 23689.4
130.5 28354.6
131.5 30820.5
132.5 31390.1
133.5 31124
134.5 28296.1
135.5 22379
136.5 14353.4
137.5 8892.88
138.5 6566.25
139.5 5350
140.5 1625.88
141.5 -5250.38
142.5 -11925.4
143.5 -16927.9
144.5 -15006.9
145.5 -9874.62
146.5 -1972.5
147.5 3910.75
148.5 6298.5
149.5 6822.62
150.5 6663.25
151.5 6914.88
152.5 7069.25
153.5 7139.88
154.5 7508.75
155.5 7773.38
156.5 8262.5
157.5 8291.62
158.5 8450.38
159.5 8436.25
160.5 8806.38
161.5 8361
162.5 8405.75
163.5 8378
164.5 8135.38
165.5 7882.38
166.5 7915.12
167.5 7690.38
168.5 7326
169.5 7639.25
170.5 7532.12
171.5 7629.38
172.5 7640.12
173.5 9104.75
174.5 10192
175.5 8785.5
176.5 7788.38
177.5 7786.38
178.5 8182.88
179.5 8043.38
180.5 7899.62
181.5 7914.38
182.5 7716
183.5 7806.62
184.5 7594.62
185.5 7525
186.5 7745.38
187.5 7779.88
188.5 7360.5
189.5 7688.62
190.5 7602.88
191.5 7600.12
192.5 7725.75
193.5 7241.25
194.5 7843.62
195.5 7542.5
196.5 7527.88
197.5 7576
198.5 7900.88
199.5 7803.88
200.5 8459.38
201.5 10298.5
202.5 10497.6
203.5 8918.12
204.5 7973
205.5 7526.5
206.5 8018.38
207.5 8003.25
208.5 7975.75
209.5 9209.62
210.5 10049.4
211.5 10327.9
212.5 9724.25
213.5 8924.12
214.5 8542.5
215.5 8624
216.5 8790.62
217.5 9093.25
218.5 8949.38
219.5 8436
220.5 8709.38
221.5 8415.62
222.5 8572.25
223.5 8151.12
224.5 8145.25
225.5 8176.62
226.5 8050.38
227.5 8144.25
228.5 8079.12
229.5 8351.25
230.5 8518.75
231.5 8214.75
232.5 8768.12
233.5 8892.12
234.5 9022
235.5 9298.88
236.5 9174.38
237.5 9386.38
238.5 9471
239.5 9207
240.5 8878.75
241.5 8604.75
242.5 8766.25
243.5 8412.62
244.5 8188.62
245.5 7916.5
246.5 7515.12
247.5 7466.88
248.5 7271.62
249.5 7155.12
250.5 7572.12
251.5 7204.5
252.5 7671.5
253.5 7370
254.5 7623
255.5 6688.75
256.5 7063.75
257.5 6569.38
258.5 6910.25
259.5 6685.12
260.5 6868.75
261.5 6870.5
262.5 7162.75
263.5 6635.38
264.5 6965.88
265.5 7104.12
266.5 7222
267.5 7153.5
268.5 7400.5
269.5 7068.75
270.5 7057.5
271.5 7162.25
272.5 6600.62
273.5 6767.12
274.5 6704
275.5 6442
276.5 6439.75
277.5 6295
278.5 6041.38
279.5 6121.25
280.5 5886.62
281.5 5956.12
282.5 6075
283.5 6741.38
284.5 6411.12
285.5 6403.38
286.5 6343.25
287.5 6168.62
288.5 6291.75
289.5 5984.88
290.5 6174.62
291.5 6015.62
292.5 5918.62
293.5 6143
294.5 5501.75
295.5 5492.38
296.5 5501.25
297.5 6100.38
298.5 7425
299.5 8354.12
300.5 6997.5
301.5 5929.38
302.5 5837.25
303.5 5771.5
304.5 5909.88
305.5 5563.25
306.5 5960.88
307.5 5450.5
308.5 5478.5
309.5 5256.5
310.5 5775
311.5 6086.38
312.5 5494.88
313.5 5224.62
314.5 5491.62
315.5 5384.88
316.5 5529.12
317.5 5231.88
318.5 5440.5
319.5 5343.75
320.5 5646.38
321.5 5578.88
322.5 5706.25
323.5 5338.5
324.5 5651.88
325.5 5505.12
326.5 5022.62
327.5 5282.62
328.5 5268.88
329.5 5276.75
330.5 5565.62
331.5 5599
332.5 5296.38
333.5 5225
334.5 5068.62
335.5 5104.25
336.5 4834.88
337.5 5149.25
338.5 5084.88
339.5 5150.5
340.5 5208.62
341.5 5123.25
342.5 5105
343.5 5219.25
344.5 5132.5
345.5 4939.62
346.5 5122
347.5 5209.75
348.5 5288.62
349.5 5237.12
350.5 5272.75
351.5 5158.25
352.5 5088.62
353.5 4828.25
354.5 4688.38
355.5 4999.5
356.5 4966.62
357.5 5013.5
358.5 5069.25
359.5 4998.12
360.5 5260.75
361.5 5196.25
362.5 5099.62
363.5 5289.25
364.5 4983.88
365.5 5320.38
366.5 7118.5
367.5 14805.8
368.5 20803.9
369.5 11739
370.5 5945.62
371.5 4963.25
372.5 4947.5
373.5 4817.88
374.5 4558.88
375.5 4411.62
376.5 4354.25
377.5 4368.38
378.5 4325.5
379.5 4466.12
380.5 4412.75
381.5 4614.25
382.5 4521.88
383.5 4424.75
384.5 4587.38
385.5 4406.25
386.5 4600.5
387.5 4571.75
388.5 4821.88
389.5 4441.38
390.5 4106.38
391.5 4275
392.5 3961.62
393.5 3999.88
394.5 4258
395.5 4121.75
396.5 4254.62
397.5 4254.5
398.5 4318.62
399.5 4766.75
400.5 5245.12
401.5 9132.12
402.5 33754.1
403.5 106795
404.5 113393
405.5 39156.4
406.5 9670.5
407.5 4723.12
408.5 4142.12
409.5 3910
410.5 3796.12
411.5 3761.25
412.5 3830.88
413.5 3389.88
414.5 3199.62
415.5 3011.5
416.5 3556.5
417.5 3426.62
418.5 3668
419.5 3529.75
420.5 3471.12
421.5 3396.12
422.5 3868
423.5 3368.25
424.5 3234.38
425.5 3596.62
426.5 3386.75
427.5 3417.5
428.5 3371.25
429.5 3526.5
430.5 3335.38
431.5 3646.25
432.5 3507.75
433.5 3757.5
434.5 3703.88
435.5 3541.38
436.5 3470.38
437.5 3501.5
438.5 3442.38
439.5 3506.5
440.5 3662.5
441.5 3612.88
442.5 3325.5
443.5 3477.75
444.5 3520.75
445.5 3359.25
446.5 3281.5
447.5 3370.62
448.5 3475.62
449.5 3149.75
450.5 3189.62
451.5 3380.5
452.5 3582.88
453.5 3539.38
454.5 3552.25
455.5 3417
456.5 3512.62
457.5 3227.88
458.5 3420.25
459.5 3450.38
460.5 3172
461.5 2830
462.5 2698
463.5 2564.25
464.5 2387.75
465.5 2567.62
466.5 2991.12
467.5 3077.88
468.5 3705.25
469.5 3866.75
470.5 3948.5
471.5 4474.38
472.5 4915.25
473.5 4987.12
474.5 5270.25
475.5 5136.38
476.5 5380.5
477.5 4589.75
478.5 4215.62
479.5 4000.25
480.5 3685.12
481.5 3601.12
482.5 3324.62
483.5 3606.5
484.5 3200.5
485.5 2650.38
486.5 2307.88
487.5 2782.38
488.5 2977
489.5 3091.25
490.5 3351.88
491.5 3485
492.5 3494
493.5 3380.5
494.5 3505.25
495.5 3306.88
496.5 3027.88
497.5 3314.12
498.5 3169.38
499.5 3277.5
500.5 3404
501.5 3105.62
502.5 3110.5
503.5 3352
504.5 2966.62
505.5 3352.25
506.5 4073.38
507.5 5295.5
508.5 9168.12
509.5 15887.9
510.5 22070.8
511.5 20961.5
512.5 14742.8
513.5 8142.25
514.5 4868.38
515.5 3788
516.5 3379.12
517.5 3284.12
518.5 3180.38
519.5 3252.88
520.5 3075.12
521.5 2990.62
522.5 3071.88
523.5 2974.88
524.5 2907
525.5 2996.5
526.5 2746
527.5 2713.38
528.5 2899.12
529.5 2973.5
530.5 2824.75
531.5 3004.5
532.5 2962.12
533.5 3025.88
534.5 3169.62
535.5 2747.38
536.5 2973.25
537.5 2756.5
538.5 2751.75
539.5 2697.75
540.5 2925.62
541.5 3007.62
542.5 2818
543.5 2784.62
544.5 2905
545.5 2861.62
546.5 2845.62
547.5 2728.88
548.5 2970.62
549.5 2890.12
550.5 2965.38
551.5 2874.12
552.5 2889.5
553.5 2962.38
554.5 2807.12
555.5 2991.75
556.5 2865.62
557.5 2894.88
558.5 2929.25
559.5 2850.75
560.5 3018.5
561.5 3043.88
562.5 2898.25
563.5 2679.75
564.5 2959.38
565.5 2822.75
566.5 2962.38
567.5 2807.75
568.5 2891.88
569.5 2813
570.5 2928.25
571.5 2981.62
572.5 2790.75
573.5 2905.88
574.5 2754.62
575.5 2636
576.5 2787.75
577.5 2774.38
578.5 2867.12
579.5 2770.5
580.5 2772.62
581.5 2849.75
582.5 2927.88
583.5 3155.75
584.5 2910.75
585.5 2716.12
586.5 2822.12
587.5 2604.25
588.5 2856.38
589.5 2554.62
590.5 2827
591.5 2754.12
592.5 2858.75
593.5 2796.62
594.5 2770.88
595.5 2619.5
596.5 2390.75
597.5 2374.88
598.5 2402
599.5 2409.88
600.5 2565.38
601.5 2536.38
602.5 3037.75
603.5 2928.62
604.5 4293.88
605.5 6009.75
606.5 5399.75
607.5 4228.38
608.5 3931
609.5 3592
610.5 3725.12
611.5 3222.25
612.5 3224.62
613.5 2976.62
614.5 2737
615.5 2691.5
616.5 2637
617.5 2517.25
618.5 2346.5
619.5 2382.62
620.5 2430.38
621.5 2582.75
622.5 2482.25
623.5 2756.38
624.5 2950.62
625.5 2814.5
626.5 2711.25
627.5 2316
628.5 2224.38
629.5 2656.75
630.5 2450.88
631.5 2727
632.5 2768.5
633.5 2693.38
634.5 2779.25
635.5 2788.62
636.5 2464
637.5 2700.88
638.5 2725.62
639.5 2490.62
640.5 2683.25
641.5 2700
642.5 2746
643.5 2802.88
644.5 3087.75
645.5 3743.25
646.5 4171.12
647.5 3953.75
648.5 3107.12
649.5 3361
650.5 3888.62
651.5 3713.62
652.5 2832.62
653.5 2868.62
654.5 2804.75
655.5 2788.75
656.5 2809.88
657.5 2611.12
658.5 2786.5
659.5 2743.75
660.5 2829.62
661.5 2648
662.5 2844
663.5 2590.25
664.5 2421.25
665.5 2309.62
666.5 2517
667.5 3046
668.5 2889.12
669.5 3066.12
670.5 2808.12
671.5 2879.5
672.5 2910.75
673.5 2735.12
674.5 2727.25
675.5 2648.62
676.5 2812.62
677.5 2651
678.5 2719.25
679.5 2635
680.5 2774.75
681.5 3139.88
682.5 3242.5
683.5 3006.12
684.5 2877.25
685.5 3147
686.5 3405
687.5 3406.5
688.5 2884.12
689.5 2726.25
690.5 2779.88
691.5 2637.75
692.5 2745.75
693.5 2647.75
694.5 2768.25
695.5 2811.88
696.5 3102
697.5 3156.75
698.5 2897.25
699.5 2839.62
700.5 3104.75
701.5 3443.75
702.5 4102
703.5 4360.38
704.5 3242.38
705.5 2975.12
706.5 2835.88
707.5 2847
708.5 2959.12
709.5 2795.12
710.5 2548.12
711.5 2343.38
712.5 2802
713.5 2784
714.5 2722.88
715.5 2696
716.5 2695.5
717.5 2823.38
718.5 2766.25
719.5 2913.5
720.5 2753.62
721.5 2821.38
722.5 2982
723.5 3050
724.5 2805.62
725.5 2750.38
726.5 2876.25
727.5 3047.62
728.5 2770.88
729.5 2715.38
730.5 2668.38
731.5 2886.25
732.5 2833.12
733.5 2732.25
734.5 2917.75
735.5 2816.75
736.5 3148.88
737.5 3790
738.5 3668.38
739.5 3189.62
740.5 2646.38
741.5 2797.5
742.5 2564.25
743.5 2520
744.5 2381.75
745.5 2534.62
746.5 2806.12
747.5 2928.25
748.5 3131.62
749.5 2989.25
750.5 3044.12
751.5 3275.5
752.5 3067
753.5 3204.38
754.5 3337.25
755.5 3301.12
756.5 3130.25
757.5 3015.25
758.5 2892.88
759.5 2806.25
760.5 2807
761.5 2154.88
762.5 2796
763.5 2583.62
764.5 2592
765.5 2614.75
766.5 2463.5
767.5 2732.88
768.5 2560.12
769.5 2733.25
770.5 2761.62
771.5 3006
772.5 2897.62
773.5 2749.25
774.5 2646.62
775.5 2998.88
776.5 2909.38
777.5 2697.12
778.5 2813
779.5 3120.5
780.5 3023.12
781.5 3125.62
782.5 2954.75
783.5 2920.5
784.5 3033
785.5 3032.38
786.5 2981.88
787.5 3068.25
788.5 2916.62
789.5 2989.12
790.5 2971
791.5 2932.75
792.5 2994.62
793.5 3229.12
794.5 3017.62
795.5 3149.12
796.5 2774.12
797.5 2974.25
798.5 2891.38
799.5 2834.12
800.5 2966.25
801.5 2923.88
802.5 2908.12
803.5 3032
804.5 3148.25
805.5 2938.12
806.5 2863.88
807.5 3099.62
808.5 3065.25
809.5 2990.25
810.5 2920.88
811.5 3208.5
812.5 3053.75
813.5 3118.62
814.5 3512
815.5 3557
816.5 3530.75
817.5 3239
818.5 2973.38
819.5 3115.75
820.5 3187.75
821.5 3258.62
822.5 3312.88
823.5 3204.75
824.5 3167.12
825.5 3111
826.5 3032.12
827.5 3091.12
828.5 3027.12
829.5 3085.88
830.5 3343
831.5 3251
832.5 3167.62
833.5 3047.12
834.5 3105.25
835.5 3102.38
836.5 2979.88
837.5 2923.62
838.5 3187.38
839.5 3067.62
840.5 3201.25
841.5 3259.62
842.5 3286.75
843.5 3324.62
844.5 3302.25
845.5 3498
846.5 3485.12
847.5 3524.12
848.5 3178
849.5 3341.25
850.5 3098.38
851.5 3283
852.5 3273.75
853.5 3244
854.5 3271.62
855.5 3225.25
856.5 3414.25
857.5 3494.62
858.5 3449.25
859.5 3563.5
860.5 3519.12
861.5 3774
862.5 3872
863.5 3673.5
864.5 3689.5
865.5 3598.88
866.5 3628.38
867.5 3291.75
868.5 3222.12
869.5 3048.25
870.5 3294.38
871.5 4055.25
872.5 4133
873.5 3537
874.5 3579.25
875.5 3980.62
876.5 4011.5
877.5 4016.25
878.5 3830.38
879.5 3825.62
880.5 3803.25
881.5 3715.62
882.5 3668.62
883.5 3712.12
884.5 3729.12
885.5 4094.75
886.5 4843.62
887.5 5534.38
888.5 5046.25
889.5 4226.75
890.5 3770.12
891.5 3771.88
892.5 3991.38
893.5 4024
894.5 3943.88
895.5 4182.12
896.5 4256.12
897.5 4220.88
898.5 4301.12
899.5 4094.88
900.5 4219
901.5 4176
902.5 4193.5
903.5 4476.12
904.5 4241.25
905.5 4342.5
906.5 4057.25
907.5 4393
908.5 4226.25
909.5 4384.25
910.5 4193.12
911.5 4514.75
912.5 4280
913.5 4489.75
914.5 4573.75
915.5 4331.25
916.5 4399.25
917.5 4350.5
918.5 4264.88
919.5 4069.25
920.5 4100.62
921.5 4045.75
922.5 3897.88
923.5 3670.75
924.5 3997
925.5 4100.88
926.5 3944.25
927.5 4106.38
928.5 3867.5
929.5 3903.88
930.5 3880
931.5 3804.75
932.5 3959
933.5 4135.12
934.5 4003.38
935.5 4082.38
936.5 3911.38
937.5 3917.12
938.5 4124.88
939.5 3950.25
940.5 3952
941.5 4024.12
942.5 4008.62
943.5 3986.75
944.5 4084.88
945.5 3938.88
946.5 3641.62
947.5 3499.5
948.5 3429.88
949.5 3178.62
950.5 3338.38
951.5 3069.25
952.5 3373.5
953.5 3378.5
954.5 3200.75
955.5 3193.88
956.5 3417.25
957.5 3643.62
958.5 3338.88
959.5 3085
960.5 3083.5
961.5 2986.62
962.5 2999.75
963.5 2937
964.5 2926.38
965.5 2797.88
966.5 2777.25
967.5 2815
968.5 2895.62
969.5 2904.12
970.5 2835.38
971.5 2751.88
972.5 3013.88
973.5 3099.62
974.5 3256
975.5 3065.62
976.5 3040.62
977.5 2944.5
978.5 2872.75
979.5 2920
980.5 2729.5
981.5 2475.75
982.5 2386.38
983.5 2532.5
984.5 2627.75
985.5 2570
986.5 2749.75
987.5 2539.38
988.5 2698.88
989.5 2632.25
990.5 2611
991.5 2569.38
992.5 2509.5
993.5 2599.25
994.5 2420.62
995.5 2379
996.5 2555.75
997.5 2592.75
998.5 2421.25
999.5 2490
1000.5 2392.62
1001.5 2144.25
1002.5 2537.12
1003.5 2202.12
1004.5 2383.25
1005.5 2487.62
1006.5 3341
1007.5 3981.12
1008.5 3389.75
1009.5 2761.88
1010.5 2252
1011.5 2215.12
1012.5 2230.62
1013.5 2248.75
1014.5 2157.38
1015.5 2165.88
1016.5 2106.38
1017.5 2310.12
1018.5 2127.62
1019.5 2307.5
1020.5 1994.12
1021.5 2103.88
1022.5 2144.25
1023.5 2341.88
1024.5 2065.75
1025.5 2418.38
1026.5 2192.62
1027.5 2111.75
1028.5 2067.62
1029.5 2068.62
1030.5 2019.5
1031.5 1987
1032.5 2088.5
1033.5 2003.38
1034.5 1787.5
1035.5 1974.25
1036.5 1779.75
1037.5 1792.75
1038.5 1899.38
1039.5 1843
1040.5 1885.12
1041.5 1929.62
1042.5 1905.25
1043.5 1882.75
1044.5 1910.62
1045.5 1903
1046.5 2005.12
1047.5 2276.25
1048.5 3806.25
1049.5 8402.88
1050.5 13527.2
1051.5 10211.6
1052.5 4157
1053.5 2203
1054.5 1746.25
1055.5 1682.25
1056.5 1816.75
1057.5 1820.5
1058.5 1611.5
1059.5 1545.62
1060.5 1814.25
1061.5 1645.62
1062.5 1531.75
1063.5 1669.75
1064.5 1778.88
1065.5 1631.88
1066.5 1595.88
1067.5 1625.62
1068.5 1482.5
1069.5 1795.25
1070.5 1583.5
1071.5 1611
1072.5 1983.75
1073.5 1472.62
1074.5 1647.62
1075.5 1677.88
1076.5 1462.88
1077.5 1593.12
1078.5 1578.38
1079.5 1616.25
1080.5 1657.75
1081.5 1596.38
1082.5 1678.38
1083.5 1455.62
1084.5 1480.12
1085.5 1627.62
1086.5 1605.12
1087.5 1539
1088.5 1725.25
1089.5 2524.25
1090.5 3346.12
1091.5 3765
1092.5 2676.25
1093.5 1798.62
1094.5 1596
1095.5 1517.12
1096.5 1419.62
1097.5 1523.38
1098.5 1429.5
1099.5 1648.88
1100.5 1518.88
1101.5 1480.62
1102.5 1548.88
1103.5 1476.38
1104.5 1403.25
1105.5 1353.75
1106.5 1151.38
1107.5 1026.12
1108.5 1111.38
1109.5 1226.62
1110.5 1418.5
1111.5 1428.75
1112.5 1400.25
1113.5 1378.62
1114.5 1418.25
1115.5 1374.38
1116.5 1605.38
1117.5 1464
1118.5 1469.38
1119.5 1536.5
1120.5 1701.75
1121.5 2217
1122.5 4587.88
1123.5 16005.4
1124.5 57935.8
1125.5 139956
1126.5 158808
1127.5 73968.2
1128.5 17276.8
1129.5 4027.5
1130.5 1934.62
1131.5 1256.38
1132.5 1224.62
1133.5 1075.75
1134.5 1078.25
1135.5 1051.12
1136.5 1057
1137.5 980.75
1138.5 1047.12
1139.5 1109.5
1140.5 1027.5
1141.5 1170.5
1142.5 1249.75
1143.5 1136
1144.5 1172
1145.5 1123
1146.5 1257
1147.5 1268.38
1148.5 1123.12
1149.5 1239.12
1150.5 1147.25
1151.5 1309.38
1152.5 1811.5
1153.5 4673.5
1154.5 18570.2
1155.5 67834.6
1156.5 148825
1157.5 151160
1158.5 64836.4
1159.5 14118.2
1160.5 3122.88
1161.5 1409.75
1162.5 973
1163.5 807.25
1164.5 767.75
1165.5 827.875
1166.5 711.375
1167.5 697.125
1168.5 791.5
1169.5 678.125
1170.5 804
1171.5 906
1172.5 792.875
1173.5 818.75
1174.5 755.375
1175.5 838.875
1176.5 704
1177.5 704.25
1178.5 779.5
1179.5 682.625
1180.5 761.5
1181.5 918.5
1182.5 1156.12
1183.5 921.25
1184.5 719.125
1185.5 154.25
1186.5 -87.75
1187.5 -364.875
1188.5 -105.125
1189.5 81.5
1190.5 479.375
1191.5 690.875
1192.5 916.75
1193.5 1270.12
1194.5 1695.12
1195.5 1497.25
1196.5 1612
1197.5 1855.88
1198.5 1942.25
1199.5 1772
1200.5 1620
1201.5 1399
1202.5 1079.88
1203.5 812.75
1204.5 717
1205.5 636.75
1206.5 367.25
1207.5 233.125
1208.5 82.75
1209.5 -74.375
1210.5 -63.75
1211.5 72.625
1212.5 501.25
1213.5 944.25
1214.5 1296
1215.5 1083
1216.5 968
1217.5 1057.75
1218.5 1278.25
1219.5 1207.62
1220.5 863.125
1221.5 769.875
1222.5 816.375
1223.5 690.5
1224.5 604.875
1225.5 707.875
1226.5 668.75
1227.5 707.125
1228.5 904.375
1229.5 979.375
1230.5 877.875
1231.5 758.375
1232.5 677.625
1233.5 714.875
1234.5 730.25
1235.5 668.375
1236.5 748.75
1237.5 646.75
1238.5 694.625
1239.5 625.75
1240.5 696.375
1241.5 650
1242.5 712.875
1243.5 1043.75
1244.5 1573.75
1245.5 1370.88
1246.5 980.625
1247.5 741.125
1248.5 564.25
1249.5 797.125
1250.5 751.25
1251.5 641
1252.5 706.375
1253.5 700
1254.5 689.25
1255.5 887
1256.5 937.625
1257.5 784.125
1258.5 854.5
1259.5 870.5
1260.5 1023.12
1261.5 876.25
1262.5 715.25
1263.5 983
1264.5 1307.25
1265.5 2652.75
1266.5 3983.62
1267.5 3220.88
1268.5 1512.75
1269.5 838.25
1270.5 645.5
1271.5 670.875
1272.5 697.5
1273.5 894.25
1274.5 1111.62
1275.5 2012.62
1276.5 2402.12
1277.5 1661.38
1278.5 1144.12
1279.5 694.125
1280.5 773.125
1281.5 734.375
1282.5 640.25
1283.5 723.375
1284.5 702.75
1285.5 678.5
1286.5 675.125
1287.5 738.75
1288.5 626.75
1289.5 649.875
1290.5 680
1291.5 762.875
1292.5 737.25
1293.5 759.5
1294.5 739.875
1295.5 671.25
1296.5 713.5
1297.5 618.875
1298.5 722.875
1299.5 617.25
1300.5 758
1301.5 692.375
1302.5 606.875
1303.5 735.125
1304.5 611.375
1305.5 681.75
1306.5 651.25
1307.5 720.125
1308.5 544.625
1309.5 653.875
1310.5 794
1311.5 811
1312.5 866.25
1313.5 1196.12
1314.5 1642.62
1315.5 1352
1316.5 1101.25
1317.5 796.625
1318.5 745.25
1319.5 719.875
1320.5 641.5
1321.5 621.125
1322.5 693.375
1323.5 719.625
1324.5 840.25
1325.5 679.375
1326.5 696.75
1327.5 717.5
1328.5 793.875
1329.5 707.75
1330.5 895.75
1331.5 701.125
1332.5 728.75
1333.5 689.125
1334.5 718.625
1335.5 721.5
1336.5 748.25
1337.5 663.625
1338.5 674.25
1339.5 814
1340.5 744.5
1341.5 813.375
1342.5 1060
1343.5 983.5
1344.5 877.625
1345.5 870.875
1346.5 812.25
1347.5 798
1348.5 687.375
1349.5 648.125
1350.5 648
1351.5 809.875
1352.5 732.25
1353.5 783.125
1354.5 704.75
1355.5 763.75
1356.5 666.25
1357.5 704.625
1358.5 702.125
1359.5 750.625
1360.5 644.875
1361.5 694.75
1362.5 664.125
1363.5 738.5
1364.5 764.875
1365.5 684.375
1366.5 714.375
1367.5 782.75
1368.5 651.875
1369.5 617.125
1370.5 647.625
1371.5 863.25
1372.5 842
1373.5 771.75
1374.5 859.375
1375.5 838.25
1376.5 851.25
1377.5 743.75
1378.5 689.125
1379.5 778.5
1380.5 729.375
1381.5 718.625
1382.5 725.875
1383.5 836.5
1384.5 773.125
1385.5 833.375
1386.5 725.5
1387.5 796.75
1388.5 768.625
1389.5 695.875
1390.5 711
1391.5 682.625
1392.5 710.125
1393.5 649.25
1394.5 629.375
1395.5 681.625
1396.5 696.625
1397.5 648.25
1398.5 615.25
1399.5 693.25
1400.5 761.625
1401.5 638.375
1402.5 739.125
1403.5 693.75
1404.5 594.25
1405.5 642
1406.5 582.5
1407.5 666.625
1408.5 637.125
1409.5 646.375
1410.5 669.25
1411.5 774.5
1412.5 649.625
1413.5 682.875
1414.5 742.5
1415.5 935.625
1416.5 986
1417.5 1011.25
1418.5 814.375
1419.5 834
1420.5 911
1421.5 788
1422.5 618.375
1423.5 631.25
1424.5 621.625
1425.5 566.125
1426.5 656.75
1427.5 725.625
1428.5 742.75
1429.5 802.75
1430.5 580
1431.5 743.625
1432.5 759.5
1433.5 778.625
1434.5 776.25
1435.5 677.25
1436.5 743.375
1437.5 749
1438.5 738.875
1439.5 665.125
1440.5 648
1441.5 746.875
1442.5 615.375
1443.5 692.375
1444.5 729.875
1445.5 665.75
1446.5 648.625
1447.5 704.875
1448.5 670
1449.5 730.875
1450.5 661.5
1451.5 738.25
1452.5 577.125
1453.5 695.625
1454.5 704.25
